Trace for Mass:	Al27(MR)	Si28(MR)	Ca44(MR)	Fe56(MR)	S32(MR)
Resolution:	Medium	Medium	Medium	Medium	Medium
					
Time	Intensity	Intensity	Intensity	Intensity	Intensity
[sec]	[cps]	[cps]	[cps]	[cps]	[cps]

1.22000002861023	11037.	848141.625	230.	1437.363647460938	17060.4453125	
2.437999963760376	16250.36328125	882602.1875	183.3333282470703	1425.833374023438	27301.36328125	
3.657000064849854	18610.583984375	880548.	250.	1292.5	27221.666015625	
4.875	20305.583984375	878603.3125	216.6666717529297	1259.166625976563	26553.666015625	
6.092999935150147	19595.833984375	872941.3125	183.3333282470703	1417.5	26561.833984375	
7.310999870300293	19579.083984375	865042.	225.	1367.583374023438	25258.666015625	
8.529000282287598	19662.333984375	1076274.	150703.578125	10389.4169921875	27347.416015625	
9.746999740600586	20171.916015625	890822.6875	441.75	1442.666625976563	26303.166015625	
10.96500015258789	21132.416015625	914638.9375	550.0833129882813	4398.83349609375	28007.333984375	
12.18299961090088	20623.	913110.9375	12160.5	3979.5	71033.4609375	
13.40100002288818	20180.333984375	888324.	3420.916748046875	4573.	26670.416015625	
14.61900043487549	23947.75	936519.875	2385.5	3036.166748046875	27948.416015625	
15.83800029754639	22352.166015625	977419.0625	16101.8330078125	19742.583984375	52097.66796875	
17.05599975585938	21157.25	931922.6875	2252.083251953125	5581.41650390625	31258.916015625	
18.27400016784668	20055.	893811.3125	16141.9169921875	5324.91650390625	31350.416015625	
19.49200057983398	21816.833984375	1019389.125	4663.91650390625	5991.41650390625	118393.8828125	
20.70999908447266	21558.25	908868.	1542.833374023438	2877.583251953125	28090.833984375	
21.92799949645996	20497.583984375	937385.0625	35513.70703125	4564.25	28466.416015625	
23.14599990844727	19971.666015625	1071849.625	1684.583374023438	3061.25	38449.5	
24.36400032043457	21307.916015625	869616.	37091.33203125	6500.91650390625	32958.41796875	
25.58200073242188	22969.583984375	1050864.5	4981.	60086.640625	26920.75	
26.79999923706055	20940.166015625	916913.3125	4789.33349609375	4923.33349609375	28676.	
28.01899909973145	20965.416015625	904626.875	7009.5	3128.	31407.083984375	
29.23699951171875	22025.916015625	896692.	1993.166625976563	14799.8330078125	48408.16015625	
30.45499992370606	23387.5	996113.9375	19476.5	17005.666015625	28508.583984375	
31.67300033569336	21107.416015625	952146.1875	2235.333251953125	5682.16650390625	27647.833984375	
32.89099884033203	23203.416015625	930028.8125	3404.	6183.75	31961.666015625	
34.10900115966797	26906.583984375	964333.375	25481.666015625	12359.1669921875	29752.916015625	
35.32699966430664	22519.083984375	905183.8125	26018.	16352.3330078125	28910.083984375	
36.54499816894531	23807.5	919385.5	11447.6669921875	4898.16650390625	27071.416015625	
37.76300048828125	21232.75	999488.75	10399.0830078125	3979.083251953125	30372.166015625	
38.98199844360352	21825.75	891278.6875	2519.166748046875	2735.75	30372.166015625	
40.20000076293945	26596.416015625	1039885.3125	6524.33349609375	3895.583251953125	32076.833984375	
41.41799926757813	22092.75	901834.6875	42734.85546875	12567.75	29268.75	
42.63600158691406	23871.666015625	934840.	2226.833251953125	2819.166748046875	36217.58203125	
43.85400009155273	24540.166015625	923141.3125	5524.41650390625	6083.16650390625	49479.23046875	
45.07199859619141	26472.583984375	919131.3125	5149.25	3953.916748046875	34822.91796875	
46.29000091552734	26473.083984375	965041.3125	3470.	4154.25	33098.58203125	
47.50799942016602	26504.416015625	894784.1875	3787.5	6058.33349609375	65818.8203125	
48.72600173950195	40584.734375	948074.6875	6699.91650390625	4170.91650390625	33418.25	
49.94400024414063	34170.08203125	951894.3125	6186.58349609375	18653.833984375	28232.583984375	
51.16299819946289	30205.5	1295812.	3753.75	13944.4169921875	31022.916015625	
52.38100051879883	23070.5	1087966.125	6885.16650390625	9388.6669921875	29260.5	
53.5989990234375	24741.916015625	922750.6875	5456.41650390625	4180.	32377.083984375	
54.81700134277344	21140.916015625	926736.	8497.3330078125	4454.91650390625	29477.5	
56.03499984741211	22510.833984375	945758.625	52918.83203125	15178.	37834.83203125	
57.25299835205078	19478.666015625	980119.75	4763.83349609375	4672.58349609375	28550.666015625	
58.47100067138672	28991.25	918097.3125	2326.916748046875	2535.5	27639.833984375	
59.68899917602539	24684.	908978.6875	4973.25	7305.91650390625	28282.75	
60.90700149536133	21675.166015625	953063.625	25418.	4529.83349609375	27714.416015625	
62.125	22544.416015625	940284.	6366.66650390625	4054.333251953125	40423.33203125	
63.34400177001953	21717.083984375	923033.875	2777.416748046875	14027.4169921875	66620.640625	
64.56199645996094	20113.666015625	944656.	3436.666748046875	5714.75	48426.83203125	
65.77999877929688	20372.333984375	1261998.5	85020.3828125	3870.5	40377.75	
66.99800109863281	22794.166015625	913161.8125	5039.58349609375	15835.8330078125	27731.5	
68.21600341796875	21675.083984375	959213.375	5156.33349609375	19599.083984375	46927.91796875	
69.43399810791016	22259.583984375	908904.4375	33609.08203125	5873.75	30312.666015625	
70.65200042724609	23470.916015625	970480.1875	4579.83349609375	4963.83349609375	29738.416015625	
71.87000274658203	21449.833984375	969318.8125	21622.166015625	4346.5	53527.75	
73.08799743652344	20915.416015625	981810.75	4822.	3595.083251953125	58115.32421875	
74.30699920654297	19980.166015625	945048.875	5331.	7668.08349609375	39835.16796875	
75.52500152587891	21992.416015625	1021158.8125	6900.58349609375	10845.5830078125	37934.66796875	
76.74299621582031	21992.25	935581.3125	8806.1669921875	6132.08349609375	66500.8359375	
77.96099853515625	24273.	898378.6875	10574.0830078125	13408.	37387.25	
79.17900085449219	19320.083984375	996977.25	5839.91650390625	24691.306640625	52899.91796875	
80.39700317382813	21466.416015625	1002803.5625	6399.41650390625	22791.666015625	92288.2734375	
81.61499786376953	59005.16796875	948312.25	3503.5	3920.833251953125	31667.166015625	
82.83300018310547	20355.666015625	923038.6875	7701.25	15677.8330078125	45063.5	
84.05100250244141	22226.25	1118965.25	14860.2998046875	17955.666015625	37912.41796875	
85.26899719238281	23254.333984375	996413.625	28583.544921875	4738.16650390625	30422.583984375	
86.48799896240234	26504.333984375	994267.375	10857.8330078125	3178.	126403.7890625	
87.70600128173828	20055.	1126134.25	5105.5	10776.8330078125	35395.41796875	
88.92400360107422	23940.916015625	953508.375	16706.666015625	4062.5	70167.390625	
90.14199829101563	21542.	919414.6875	44628.5	10158.6669921875	42281.58203125	
91.36000061035156	21048.75	967674.25	38789.41796875	22593.916015625	57530.16796875	
92.5780029296875	23865.583984375	984189.3125	7520.75	5531.	35856.25	
93.79599761962891	20981.75	941042.6875	18730.083984375	6266.33349609375	79407.5703125	
95.01399993896484	19762.75	998543.125	23022.494140625	11072.1669921875	37865.75	
96.23200225830078	22485.166015625	958309.125	24100.666015625	9222.0830078125	27464.25	
97.44999694824219	21867.083984375	956396.3125	4888.58349609375	7419.75	39649.66796875	
98.66899871826172	33576.66796875	922500.	7410.16650390625	7501.25	37632.75	
99.88700103759766	24490.416015625	952237.4375	25049.736328125	5314.	56257.0859375	
101.1050033569336	22393.083984375	964978.6875	43905.91796875	9909.1669921875	43740.	
102.322998046875	24908.583984375	1024698.5	40297.58203125	13090.5	37790.25	
103.5410003662109	24783.666015625	946732.1875	12590.6669921875	60561.44921875	33870.41796875	
104.7590026855469	30324.833984375	1132298.875	77880.9453125	11690.75	30096.75	
105.9769973754883	23899.	907718.6875	47153.7890625	13518.9169921875	33727.25	
107.1949996948242	28142.083984375	1108945.5	35451.33203125	4721.58349609375	52295.91796875	
108.4130020141602	21416.166015625	940408.	7600.33349609375	4454.5	46662.08203125	
109.6309967041016	22952.916015625	943887.25	11773.25	6131.91650390625	206714.328125	
110.8499984741211	23253.75	920504.125	22855.5	11248.9169921875	39307.33203125	
112.068000793457	21767.	922236.	23010.166015625	10050.6669921875	58305.78515625	
113.286003112793	25352.75	1149770.	13104.	8745.5830078125	45408.66796875	
114.5039978027344	21491.583984375	1039690.75	12421.	5631.25	64599.6640625	
115.7220001220703	24523.333984375	969384.125	35189.3828125	8837.8330078125	37756.33203125	
116.9400024414063	33617.5	983960.5625	47741.83984375	14321.25	30889.5	
118.1579971313477	22418.666015625	918296.	20929.166015625	16957.416015625	34299.25	
119.3759994506836	38498.5	1001314.5625	8919.0830078125	11784.6669921875	33188.25	
120.5940017700195	25375.083984375	971459.8125	14785.25	14173.	58222.40234375	
121.8130035400391	26629.25	1052916.625	108533.6640625	13403.4169921875	73008.734375	
123.0309982299805	23989.166015625	1106221.625	10271.6669921875	30483.30078125	76619.7421875	
124.2490005493164	27613.916015625	1258729.25	36530.30078125	9061.0830078125	35504.	
125.4670028686523	30001.333984375	1049789.75	23512.5	20854.75	39919.41796875	
126.6849975585938	24130.333984375	937173.3125	12479.3330078125	17151.333984375	83472.84375	
127.9029998779297	24230.75	981467.4375	71022.0078125	25548.333984375	42680.83203125	
129.1210021972656	25133.25	1065740.75	45996.94921875	13602.25	64886.33203125	
130.3390045166016	29628.833984375	1003895.375	18838.333984375	7942.75	56624.5859375	
131.5570068359375	27146.416015625	1039173.0625	11657.	9044.8330078125	35221.16796875	
132.7749938964844	27424.333984375	1016813.6875	22938.416015625	23144.666015625	39469.75	
133.9940032958984	24297.75	965704.8125	15081.3330078125	22927.666015625	407950.40625	
135.2120056152344	22117.75	998315.25	18931.333984375	10683.0830078125	44485.66796875	
136.4299926757813	53574.	959309.3125	29856.833984375	338973.46875	36321.75	
137.6479949951172	22235.666015625	927576.	71913.0546875	18745.416015625	43413.5	
138.8659973144531	27753.833984375	993522.8125	12308.5	7258.16650390625	49669.33203125	
140.0839996337891	21567.	1064103.5	16040.4169921875	15321.75	44593.59765625	
141.302001953125	25401.416015625	1091626.25	22984.083984375	7568.	48984.66796875	
142.5200042724609	24890.75	966834.25	13408.6669921875	6099.16650390625	34759.5	
143.7380065917969	22643.916015625	925811.4375	72483.1640625	8010.5	52776.91796875	
144.9559936523438	22259.916015625	958738.6875	96008.359375	15149.1669921875	43017.33203125	
146.1750030517578	39242.33203125	928300.875	7451.83349609375	4371.	56652.40234375	
147.3930053710938	22343.916015625	964778.6875	17954.5	181431.3125	32301.333984375	
148.6109924316406	27471.083984375	953262.	39983.484375	22763.666015625	379794.09375	
149.8289947509766	20815.083984375	947622.6875	7259.	6199.33349609375	45473.75	
151.0469970703125	22426.833984375	1141687.375	9571.25	19879.833984375	60646.79296875	
152.2649993896484	24325.333984375	927320.6875	13481.6669921875	6483.25	139663.265625	
153.4830017089844	24391.416015625	991400.625	15252.	18792.	32252.666015625	
154.7010040283203	20038.5	947910.375	37601.75	17018.583984375	84163.96875	
155.9190063476563	19863.	884922.6875	20819.166015625	8987.6669921875	94459.53125	
157.1380004882813	22201.25	1297074.875	10384.4169921875	4830.	45633.33203125	
158.3560028076172	21925.75	856301.3125	28562.666015625	14685.0830078125	49543.75	
159.5740051269531	22721.	878392.9375	24454.083984375	8880.25	44544.75	
160.7920074462891	36013.41796875	905789.3125	15233.6669921875	7980.58349609375	47013.	
162.0099945068359	22744.5	971341.25	49892.28125	6074.41650390625	82152.8125	
163.2279968261719	21625.75	1053594.	26150.25	11555.3330078125	98093.6171875	
164.4459991455078	19453.833984375	896712.	10416.6669921875	19566.083984375	30805.916015625	
165.6640014648438	20864.916015625	906630.625	8966.25	7436.41650390625	58097.4453125	
166.8820037841797	20038.5	1034041.4375	18188.916015625	21830.083984375	40782.75	
168.1000061035156	25860.833984375	1058517.	13607.0830078125	24994.25	37973.75	
169.3190002441406	22677.25	867715.125	24558.75	5356.41650390625	58700.66796875	
170.5370025634766	19929.916015625	944824.6875	12682.5830078125	8354.0830078125	45039.83203125	
171.7550048828125	20230.333984375	1025284.125	21555.666015625	10380.6669921875	36061.66796875	
172.9730072021484	21625.083984375	950926.125	22351.083984375	7912.83349609375	32169.333984375	
174.1909942626953	20681.833984375	977345.4375	33258.33203125	8955.5830078125	52818.58203125	
175.4089965820313	43197.7265625	876738.6875	22990.333984375	11170.0830078125	31390.333984375	
176.6269989013672	19294.916015625	1056926.375	32356.083984375	17299.63671875	33983.33203125	
177.8450012207031	22669.25	883531.	16174.5830078125	5614.91650390625	37734.33203125	
179.0630035400391	19579.166015625	911351.6875	20592.583984375	5564.58349609375	32978.58203125	
180.281005859375	21541.75	904956.	5798.66650390625	4855.5	37888.	
181.5	25599.333984375	913890.6875	5606.41650390625	13506.6669921875	29586.25	
182.7180023193359	24257.583984375	832375.1875	36550.33203125	12002.4169921875	35858.	
183.9360046386719	30347.25	948862.6875	21586.	6750.08349609375	35367.08203125	
185.1540069580078	53450.56640625	1026156.625	68185.65625	7834.58349609375	38365.5	
186.3719940185547	70003.984375	1345843.625	56979.33203125	4871.83349609375	111118.7265625	
187.5899963378906	35076.83203125	938572.	13757.4169921875	7576.58349609375	34812.75	
188.8079986572266	22653.416015625	1023307.625	12300.0830078125	30742.666015625	28951.916015625	
190.0260009765625	26687.916015625	929646.	62080.4296875	16767.75	33713.33203125	
191.2440032958984	24499.083984375	928836.5625	19375.833984375	27680.25	36289.33203125	
192.4629974365234	24324.25	943311.125	17975.333984375	3211.5	88320.109375	
193.6809997558594	22861.333984375	982737.625	4538.16650390625	6090.5	64172.5078125	
194.8990020751953	28315.916015625	889209.625	35137.5	9646.3330078125	32712.583984375	
196.1170043945313	26210.833984375	952979.	48649.41796875	28541.75	36645.5	
197.3350067138672	31333.333984375	981147.3125	4805.25	172787.546875	29820.166015625	
198.5529937744141	36035.	866532.	22962.666015625	11551.	29836.333984375	
199.77099609375	26146.75	914774.9375	15792.	9639.1669921875	73342.625	
200.9889984130859	27363.75	907655.4375	14713.75	8596.	35931.58203125	
202.2070007324219	26220.25	892702.4375	130740.96875	13124.	48557.83203125	
203.4250030517578	23186.833984375	944718.8125	7459.5	8822.4169921875	171752.859375	
204.6439971923828	31561.583984375	957431.375	16853.7265625	9818.	51475.66796875	
205.8619995117188	22268.	890890.25	11159.75	6574.66650390625	31830.	
207.0800018310547	23671.75	1083709.375	11259.4169921875	14705.	59771.43359375	
208.2980041503906	25994.083984375	877135.4375	16934.333984375	5556.58349609375	31069.083984375	
209.5160064697266	23932.083984375	904279.4375	18672.666015625	10915.25	49084.91796875	
210.7339935302734	21015.083984375	892977.6875	13919.	7488.08349609375	27255.416015625	
211.9519958496094	23120.25	943875.375	5431.41650390625	5005.5	163018.625	
213.1699981689453	20464.416015625	907321.125	11671.75	11824.9169921875	42243.41796875	
214.3880004882813	20789.916015625	899637.3125	16911.333984375	7626.41650390625	30299.833984375	
215.6060028076172	20815.333984375	906958.75	8652.25	7343.25	82672.75	
216.8249969482422	19186.666015625	1017179.125	22923.333984375	3678.416748046875	58231.75	
218.0429992675781	24010.083984375	1029470.5625	18167.666015625	24190.833984375	37627.41796875	
219.2610015869141	21934.	922240.6875	9939.6669921875	9341.75	37053.58203125	
220.47900390625	19896.833984375	1063433.875	53810.54296875	6810.58349609375	55108.01953125	
221.6970062255859	22353.583984375	1116651.75	10264.3330078125	3011.166748046875	80079.4140625	
222.9149932861328	18852.666015625	1100983.875	23960.083984375	6816.75	38326.25	
224.1329956054688	55650.9609375	892067.625	14216.9169921875	8455.0830078125	62130.35546875	
225.3509979248047	22795.083984375	1017623.	25815.166015625	12299.25	45917.83203125	
226.5690002441406	20097.25	1026051.	18364.583984375	10310.4169921875	51888.66796875	
227.7870025634766	35162.5	1064843.	6207.5	19589.083984375	72485.953125	
229.0059967041016	23120.	1071124.875	15365.	11042.25	60773.33203125	
230.2239990234375	23529.666015625	945561.3125	24577.916015625	8327.9169921875	48842.83203125	
231.4420013427734	20990.583984375	926538.0625	4938.83349609375	16873.833984375	65503.91796875	
232.6600036621094	25251.5	902913.625	10920.6669921875	7768.5	46884.33203125	
233.8780059814453	20029.833984375	871437.0625	10181.5830078125	4880.66650390625	53602.5	
235.0959930419922	19829.833984375	956377.625	10437.5830078125	8520.9169921875	58456.01171875	
236.3139953613281	22518.5	968955.6875	8994.6669921875	14023.75	40741.58203125	
237.5319976806641	25149.833984375	849800.6875	5347.58349609375	16878.083984375	141895.9375	
238.75	22385.583984375	959986.1875	35992.75	6658.5	32076.75	
239.968994140625	19654.25	904747.	11661.8330078125	5431.08349609375	77909.4140625	
241.1869964599609	21199.583984375	1073673.5	47984.83203125	15259.75	36532.41796875	
242.4049987792969	19745.916015625	993681.625	11468.6669921875	5565.25	47085.	
243.6230010986328	22159.25	903042.6875	43296.91796875	7494.91650390625	56070.16796875	
244.8410034179688	23455.	1004024.4375	74816.09375	5681.41650390625	33959.5	
246.0590057373047	20823.5	863475.3125	9905.6669921875	25426.75	36559.5	
247.2769927978516	20030.166015625	892114.5	24006.591796875	17370.333984375	30883.083984375	
248.4949951171875	20873.416015625	973646.6875	31948.447265625	7569.83349609375	203685.796875	
249.7129974365234	22879.5	1084979.125	19272.	20780.75	63203.29296875	
250.9309997558594	19880.	968361.8125	29912.5	2602.416748046875	71826.9140625	
252.1499938964844	21508.583984375	1035841.75	12803.25	8770.9169921875	32476.416015625	
253.3679962158203	20030.083984375	1040196.25	12451.5	6023.75	32572.	
254.5859985351563	33280.58203125	906899.5625	32519.083984375	17012.666015625	42755.08203125	
255.8040008544922	28441.916015625	892549.9375	23693.1796875	10935.3330078125	37386.41796875	
257.0220031738281	21416.583984375	881145.3125	33759.42578125	13640.5830078125	35396.25	
258.239990234375	21533.416015625	932354.1875	31471.333984375	15600.25	70825.0546875	
259.4580078125	24406.666015625	866490.8125	12916.25	4337.75	43861.	
260.6759948730469	22560.5	1051618.125	57097.640625	6098.75	59756.02734375	
261.8940124511719	20556.	901467.125	59444.26171875	12988.9169921875	140832.71875	
263.1119995117188	29700.666015625	1107365.375	19258.083984375	25814.5	39852.83203125	
264.3309936523438	22770.75	1066068.75	17762.25	24318.833984375	67236.0234375	
265.5490112304688	23881.25	898462.75	29630.583984375	9009.6669921875	53251.83203125	
266.7669982910156	22680.5	941729.4375	70701.234375	14217.25	46904.	
267.9849853515625	25896.916015625	885320.75	25564.583984375	27458.666015625	57275.86328125	
269.2030029296875	20949.083984375	959377.	44935.58203125	13571.1669921875	30986.	
270.4209899902344	22151.666015625	917060.8125	19305.	10917.75	48968.33203125	
271.6390075683594	22694.333984375	918938.125	20976.5	13698.5	45968.16796875	
272.8569946289063	22385.833984375	987458.1875	9438.	7751.16650390625	107615.3203125	
274.0750122070313	19253.5	919463.5625	9404.5	6541.	30081.25	
275.2940063476563	22603.916015625	921390.875	11211.63671875	6157.33349609375	37501.	
276.5119934082031	23238.333984375	916444.	31374.083984375	4980.33349609375	52301.08203125	
277.7300109863281	19529.166015625	955746.125	18943.25	7501.08349609375	58578.25	
278.947998046875	19295.416015625	961952.4375	10250.0830078125	4805.58349609375	54603.43359375	
280.1659851074219	20205.75	1050124.	8780.1669921875	26895.896484375	36299.75	
281.3840026855469	19470.583984375	884474.	67812.609375	5481.5	50423.76171875	
282.6019897460938	19495.75	1016010.375	8978.8330078125	19981.75	49339.41796875	
283.8200073242188	20573.333984375	921738.5625	39423.08203125	7511.08349609375	31210.666015625	
285.0379943847656	21760.166015625	913577.0625	48986.73046875	6649.83349609375	29996.666015625	
286.2560119628906	19437.	842111.3125	14934.25	5807.5	31932.083984375	
287.4750061035156	19520.583984375	916666.5625	5006.91650390625	6977.83349609375	34288.41796875	
288.6929931640625	21667.583984375	863882.6875	24195.416015625	9054.1669921875	26971.916015625	
289.9110107421875	20873.416015625	899310.25	31157.416015625	5801.08349609375	30706.583984375	
291.1289978027344	19612.416015625	888093.5	44383.78125	5990.41650390625	28208.833984375	
292.3469848632813	18218.083984375	1101385.25	10013.25	5456.66650390625	39381.91796875	
293.5650024414063	20113.5	857553.3125	26456.666015625	8807.75	41513.16796875	
294.7829895019531	18810.916015625	908119.8125	17741.	4972.08349609375	155218.03125	
296.0010070800781	18301.583984375	900028.875	7050.83349609375	9543.	88794.2734375	
297.218994140625	20681.333984375	963844.5	13715.	7643.16650390625	43916.83203125	
298.43701171875	20547.833984375	868099.3125	6758.08349609375	11424.4169921875	31399.333984375	
299.656005859375	23924.916015625	867355.3125	94882.2734375	5940.41650390625	28065.	
300.8739929199219	21074.25	948679.875	6133.	18671.666015625	46585.16796875	
302.0920104980469	18660.583984375	931562.4375	18188.333984375	15268.9169921875	34939.58203125	
303.3099975585938	18468.5	904015.6875	23126.572265625	6658.	47903.53515625	
304.5280151367188	19838.083984375	913186.6875	22958.615234375	18285.583984375	32657.166015625	
305.7460021972656	19520.583984375	894037.3125	31439.75	4863.91650390625	58832.45703125	
306.9639892578125	19528.916015625	1126955.375	32132.828125	5180.58349609375	31750.833984375	
308.1820068359375	64630.171875	895803.875	60009.56640625	55302.76953125	70222.40625	
309.3999938964844	19437.083984375	988225.6875	56388.86328125	3895.583251953125	38758.58203125	
310.6180114746094	21666.916015625	902396.875	13961.4169921875	3044.666748046875	47693.58203125	
311.8370056152344	21274.416015625	1336887.5	14704.6669921875	49416.84765625	71104.8125	
313.0549926757813	20564.416015625	1014832.375	14425.4169921875	14153.4169921875	80414.4140625	
314.2730102539063	21726.416015625	1050139.25	17273.	23387.5	44790.08203125	
315.4909973144531	22210.25	868558.5625	62417.41015625	11604.1669921875	81310.9453125	
316.7090148925781	19278.416015625	1010569.625	17068.5	22158.416015625	40350.16796875	
317.927001953125	20681.583984375	1042683.9375	23911.833984375	6332.83349609375	50196.78125	
319.1449890136719	23170.416015625	954136.4375	14640.5830078125	7877.41650390625	47093.5	
320.3630065917969	24435.	899779.875	100684.8046875	12957.5830078125	35562.66796875	
321.5809936523438	18025.916015625	965075.5625	17553.416015625	32539.486328125	59894.41796875	
322.7999877929688	20188.833984375	917387.375	54233.76171875	15435.	41920.08203125	
324.0180053710938	18961.416015625	906671.875	20340.583984375	8504.5830078125	117075.	
325.2359924316406	21074.166015625	905185.3125	11025.5	8770.9169921875	41763.08203125	
326.4540100097656	29931.416015625	1149137.5	16806.916015625	5331.08349609375	38551.91796875	
327.6719970703125	18050.916015625	1012591.25	19407.25	23051.5	131302.359375	
328.8900146484375	20706.916015625	914052.8125	43348.83203125	12294.6669921875	137737.796875	
330.1080017089844	17834.166015625	958509.1875	40805.25	4989.16650390625	70254.8359375	
331.3259887695313	21091.	926110.625	10286.75	14394.3330078125	27354.916015625	
332.5440063476563	23430.583984375	1018973.8125	60125.83203125	7251.58349609375	31206.25	
333.7619934082031	20556.	1240250.5	24949.25	3086.166748046875	51895.41796875	
334.9809875488281	21937.666015625	916119.75	8679.75	10117.3330078125	44642.	
336.1990051269531	20706.5	867316.375	8094.66650390625	4797.41650390625	130073.0625	
337.4169921875	22513.5	1081069.625	20861.416015625	18400.083984375	128296.734375	
338.635009765625	21040.5	1168274.25	19339.	4146.	59625.66796875	
339.8529968261719	19136.416015625	1007116.4375	4655.25	5397.75	64668.90625	
341.0710144042969	20180.166015625	901463.75	8721.3330078125	8094.75	79519.0625	
342.2890014648438	19245.083984375	932538.75	9598.6669921875	25124.5	32144.666015625	
343.5069885253906	21123.916015625	1253640.	36852.2578125	7394.66650390625	42781.83203125	
344.7250061035156	26892.5	1254234.5	27846.	7969.16650390625	67414.4140625	
345.9429931640625	20489.5	936722.5625	31494.166015625	4681.25	72303.8046875	
347.1619873046875	20631.416015625	1095807.625	9238.25	20545.916015625	56234.765625	
348.3800048828125	19027.833984375	900086.6875	46257.08203125	9024.3330078125	61454.58203125	
349.5979919433594	23145.75	1203702.75	29486.	15587.4169921875	64724.5703125	
350.8160095214844	18718.916015625	852349.3125	8869.75	23263.416015625	73021.9296875	
352.0339965820313	20113.75	929584.125	20994.166015625	11044.3330078125	30004.5	
353.2520141601563	22736.	1026903.	30797.833984375	11458.1669921875	45281.66796875	
354.4700012207031	22819.666015625	867802.	14376.3330078125	25368.166015625	195368.40625	
355.68798828125	25842.25	913617.625	13517.75	15394.1669921875	132218.984375	
356.906005859375	20430.666015625	984353.5625	61633.63671875	25913.416015625	42798.	
358.125	21725.166015625	988693.3125	33666.83203125	7209.58349609375	87923.8359375	
359.3429870605469	18217.916015625	1001480.1875	10774.9169921875	4564.41650390625	88956.21875	
360.5610046386719	20798.75	975251.9375	33458.41796875	6023.75	53602.16796875	
361.7789916992188	22795.166015625	955115.	24529.166015625	21262.908203125	75507.1015625	
362.9970092773438	21399.916015625	943365.0625	17210.166015625	11845.8330078125	34894.16796875	
364.2149963378906	19395.416015625	1014010.1875	6534.58349609375	135532.5	105926.2265625	
365.4330139160156	21357.75	881920.	32413.666015625	20937.833984375	122678.671875	
366.6510009765625	20272.25	928147.3125	19827.666015625	6715.91650390625	37369.75	
367.8689880371094	20723.	883956.	17304.416015625	11693.0830078125	59838.08203125	
369.0870056152344	20105.333984375	896896.1875	16653.916015625	7993.75	58403.41796875	
370.3059997558594	20322.166015625	1133154.375	50233.72265625	18679.833984375	79124.8828125	
371.5239868164063	19328.833984375	980378.6875	22072.953125	10903.0830078125	137363.28125	
372.7420043945313	21282.833984375	874664.6875	13539.5830078125	4020.75	89588.8828125	
373.9599914550781	21709.083984375	903270.625	6549.83349609375	7358.58349609375	143763.734375	
375.1780090332031	21023.5	1060283.5	112762.5859375	16715.916015625	48406.33203125	
376.39599609375	20639.833984375	1154480.375	14779.	8477.6669921875	35233.91796875	
377.614013671875	20414.083984375	871629.5625	151289.953125	12971.0830078125	44281.66796875	
378.8320007324219	22036.25	970229.625	27406.75	5665.16650390625	40202.25	
380.0499877929688	22544.5	1034804.8125	21285.333984375	13798.1669921875	65405.60546875	
381.2680053710938	21725.333984375	909289.375	22506.083984375	23700.5	206529.125	
382.4869995117188	19620.833984375	885952.3125	7627.08349609375	13762.75	81966.	
383.7049865722656	20163.5	1057866.75	12888.5	5998.41650390625	37276.25	
384.9230041503906	23767.083984375	931108.125	19389.5	8144.5	34108.33203125	
386.1409912109375	21959.083984375	1086858.875	43869.6484375	6173.75	60574.66796875	
387.3590087890625	21391.333984375	888838.5625	26684.166015625	4512.91650390625	92405.4296875	
388.5769958496094	21817.416015625	883279.9375	27538.333984375	6250.	37163.	
389.7950134277344	19269.916015625	922274.4375	26607.455078125	3678.666748046875	58417.05859375	
391.0130004882813	21808.666015625	888095.25	16161.1669921875	19780.	78127.625	
392.2309875488281	20506.	857544.	17055.25	6634.83349609375	38859.5	
393.4490051269531	19002.916015625	936513.5	22172.916015625	11952.3330078125	35698.25	
394.6679992675781	19721.083984375	1008941.4375	14796.1669921875	3778.75	31659.916015625	
395.885986328125	20447.5	955708.	12400.9169921875	5389.91650390625	36080.	
397.10400390625	26421.666015625	945474.875	7284.5	8520.9169921875	44767.91796875	
398.3219909667969	18785.666015625	1428659.875	23661.833984375	7371.16650390625	32797.	
399.5400085449219	19888.416015625	900862.25	38396.02734375	7895.33349609375	51230.25	
400.7579956054688	18485.166015625	882036.75	19713.15625	9246.3330078125	29880.666015625	
401.9760131835938	24403.583984375	1601651.75	32398.916015625	15194.1669921875	171080.4375	
403.1940002441406	23655.	935225.5625	17960.833984375	10695.8330078125	35624.66796875	
404.4119873046875	21457.833984375	972801.6875	8721.9169921875	18216.5	59464.75	
405.6310119628906	19019.416015625	895086.	13997.6669921875	7351.08349609375	83466.796875	
406.8489990234375	19378.75	875293.25	6867.	9522.	60532.69140625	
408.0669860839844	20339.25	940119.4375	14547.4169921875	6151.16650390625	55208.71484375	
409.2850036621094	19336.833984375	966926.4375	9191.5	28360.666015625	25350.416015625	
410.5029907226563	21358.	918155.6875	11117.5	13007.1669921875	70291.6640625	
411.7210083007813	20572.833984375	1294500.5	28964.416015625	3745.583251953125	47860.33203125	
412.9389953613281	21349.166015625	994850.0625	23602.	18633.5	71616.09375	
414.1570129394531	20088.5	875673.	165738.453125	6349.08349609375	57552.6015625	
415.375	20506.833984375	967330.6875	17391.333984375	9213.5	44528.41796875	
416.5929870605469	20974.75	936299.75	49810.9921875	3945.666748046875	112085.1015625	
417.81201171875	20222.083984375	923751.5	47386.30859375	6007.5	59630.33203125	
419.0299987792969	20189.	976044.8125	168256.6875	9232.9169921875	37161.83203125	
420.2479858398438	18860.833984375	907386.6875	8587.8330078125	4029.166748046875	93619.71875	
421.4660034179688	19562.416015625	915099.0625	16067.25	24401.75	32254.75	
422.6839904785156	18885.833984375	919243.1875	34482.75	9609.25	106783.2265625	
423.9020080566406	18819.416015625	905473.875	34035.859375	14426.5	145379.984375	
425.1199951171875	18927.583984375	1012190.0625	21965.25	10747.0830078125	61069.01171875	
426.3380126953125	21767.75	943606.75	16384.583984375	17886.	39885.24609375	
427.5559997558594	18117.916015625	893750.	36834.75	4921.91650390625	48387.27734375	
428.7739868164063	21091.166015625	934987.875	43927.26171875	8770.8330078125	121866.828125	
429.9930114746094	20606.166015625	978685.375	27951.25	7375.91650390625	98988.15625	
431.2109985351563	17725.25	873091.75	21401.25	23507.666015625	93189.53125	
432.4289855957031	20506.25	996467.1875	6776.83349609375	5372.75	67369.1640625	
433.6470031738281	19044.666015625	883841.3125	25189.583984375	6401.5	33902.16796875	
434.864990234375	23935.416015625	899585.5	18622.607421875	5832.91650390625	43079.25	
436.0830078125	22328.083984375	877876.75	34730.81640625	6816.75	41243.25	
437.3009948730469	19855.5	1294938.875	25832.333984375	11636.3330078125	82547.8125	
438.5190124511719	20163.416015625	1169716.875	27897.333984375	7326.16650390625	46978.91796875	
439.7369995117188	19896.666015625	1104771.75	8686.5830078125	8312.	43773.41796875	
440.9559936523438	19846.333984375	871889.	68801.3515625	6299.58349609375	27766.833984375	
442.1740112304688	20013.583984375	880130.5625	16459.666015625	13401.6669921875	41922.66796875	
443.3919982910156	22551.75	1064646.375	45658.66796875	9839.8330078125	36458.83203125	
444.6099853515625	19929.75	866349.5	12221.1669921875	13785.	56302.66796875	
445.8280029296875	18552.166015625	936143.625	21411.333984375	7743.5	64012.58203125	
447.0459899902344	20514.333984375	1075928.125	16029.9169921875	20422.083984375	114472.4375	
448.2640075683594	20664.5	861795.625	18296.916015625	9404.8330078125	53015.25	
449.4819946289063	19888.166015625	990039.625	12555.8330078125	7603.33349609375	45550.58203125	
450.7000122070313	20456.083984375	881383.8125	49073.83203125	4822.58349609375	48931.66796875	
451.9179992675781	19219.916015625	864250.9375	47929.66796875	22913.583984375	30419.333984375	
453.1369934082031	26216.5	1111374.25	33342.89453125	5523.83349609375	74494.6640625	
454.3550109863281	19278.416015625	954887.375	16791.333984375	30276.962890625	41927.77734375	
455.572998046875	20990.5	975474.25	22957.833984375	27513.916015625	39573.5	
456.7909851074219	19178.166015625	855252.5625	11928.9169921875	6893.33349609375	51148.41796875	
458.0090026855469	20155.333984375	897633.625	48345.16796875	12840.4169921875	45244.75	
459.2269897460938	19119.833984375	1060180.875	15939.6669921875	253885.125	44059.25	
460.4450073242188	21032.083984375	937736.5625	30283.25	5648.	30857.916015625	
461.6629943847656	22480.583984375	878924.625	439883.34375	22239.5	43884.5	
462.8810119628906	19812.916015625	909580.	115812.625	10484.5830078125	35987.16796875	
464.0989990234375	23539.416015625	1415842.125	22453.583984375	15704.4169921875	29661.5	
465.3179931640625	18660.333984375	1065603.25	20505.833984375	8286.	33470.83203125	
466.5360107421875	21425.25	970232.5	20323.916015625	66635.3984375	89431.6328125	
467.7539978027344	18476.833984375	1134271.5	30636.46875	8093.66650390625	46292.	
468.9719848632813	19971.5	951142.25	18610.	4571.66650390625	79521.6015625	
470.1900024414063	21099.	864332.	12896.1669921875	5372.66650390625	31784.166015625	
471.4079895019531	19762.833984375	913608.25	25621.166015625	62385.640625	31516.25	
472.6260070800781	20606.083984375	925831.375	106031.9765625	5072.33349609375	42230.08203125	
473.843994140625	23640.333984375	1014448.6875	24822.818359375	22745.833984375	48807.39453125	
475.06201171875	22477.833984375	839952.6875	8495.	4463.16650390625	60008.0390625	
476.281005859375	21232.75	883759.125	4930.91650390625	22296.833984375	41211.83203125	
477.4989929199219	21909.333984375	963080.125	36158.16796875	19575.083984375	38556.16796875	
478.7170104980469	29001.333984375	865537.	27322.591796875	7302.41650390625	72900.5	
479.9349975585938	19704.583984375	854682.625	13146.25	8569.5830078125	45656.58203125	
481.1530151367188	29982.25	828754.6875	10631.5830078125	19281.333984375	67135.6171875	
482.3710021972656	22278.833984375	882849.25	22902.802734375	8361.9169921875	50436.04296875	
483.5889892578125	20865.25	865312.6875	19751.916015625	8186.33349609375	126335.984375	
484.8070068359375	21182.583984375	873400.6875	3361.583251953125	10816.5	32358.5	
486.0249938964844	23156.75	869387.5625	6543.33349609375	22803.083984375	53700.75	
487.2430114746094	26588.333984375	856776.6875	38583.1484375	9632.2724609375	50031.08203125	
488.4620056152344	19905.	878237.375	7228.83349609375	274438.40625	107527.5234375	
489.6799926757813	25912.666015625	923966.5625	6816.5	10609.	48142.21875	
490.8980102539063	84875.828125	936152.6875	60135.25	6340.83349609375	28884.666015625	
492.1159973144531	35125.875	1021554.75	13331.25	29748.416015625	39358.83203125	
493.3340148925781	28012.75	863296.	11193.6669921875	5431.66650390625	39956.91796875	
494.552001953125	20965.5	893599.3125	13485.6669921875	5130.75	402335.6875	
495.7699890136719	21525.333984375	907948.6875	15703.1669921875	8185.91650390625	32161.	
496.9880065917969	22518.75	837927.3125	18836.833984375	7322.16650390625	73023.2109375	
498.2059936523438	17984.166015625	865689.3125	4522.33349609375	11779.4169921875	47739.58203125	
499.4240112304688	23590.25	1270515.25	12015.25	6184.41650390625	31766.416015625	
500.6430053710938	21366.333984375	843288.375	3311.583251953125	6583.08349609375	100236.1640625	
501.8609924316406	27482.166015625	864280.0625	109094.1875	3494.833251953125	84053.1328125	
503.0790100097656	21633.5	930985.	26985.916015625	18325.083984375	35453.16796875	
504.2969970703125	21007.583984375	832812.6875	12484.0830078125	65096.75	34034.75	
505.5150146484375	19729.416015625	974762.5	23815.5	12227.4169921875	33473.	
506.7330017089844	23547.833984375	945122.9375	49357.76953125	12213.0830078125	32212.083984375	
507.9509887695313	20389.083984375	943652.0625	21540.666015625	22488.552734375	59320.	
509.1690063476563	22402.333984375	1001007.5	8236.	8930.5	71977.359375	
510.3869934082031	19604.416015625	855556.4375	11286.3330078125	5756.83349609375	53724.16796875	
511.6059875488281	19295.083984375	869685.75	21183.083984375	12949.9169921875	43161.41796875	
512.823974609375	19645.833984375	890287.125	30514.416015625	9329.3330078125	42622.41796875	
514.0419921875	19203.25	878173.3125	37181.83203125	10794.8330078125	45986.16796875	
515.260009765625	20163.666015625	923711.0625	17846.416015625	4446.25	120576.1796875	
516.47802734375	20372.583984375	1046061.875	16628.416015625	8529.8330078125	39167.5	
517.6959838867188	22034.666015625	1044292.75	34323.66796875	13062.5	40727.75	
518.9140014648438	23965.666015625	878452.	19132.666015625	8027.25	45284.16796875	
520.1320190429688	22376.333984375	879212.1875	27188.75	6048.75	53160.42578125	
521.3499755859375	25911.833984375	887408.625	32305.208984375	36880.92578125	99028.7265625	
522.5679931640625	39536.08203125	918647.3125	15878.0830078125	5105.66650390625	40894.91796875	
523.7869873046875	22785.833984375	963812.5	21894.5	9787.8330078125	76309.	
525.0050048828125	30024.583984375	976306.375	64066.26953125	18617.083984375	63527.5	
526.2230224609375	23437.5	915843.1875	51384.33203125	10397.8330078125	91559.796875	
527.4409790039063	24564.75	1006468.75	19835.083984375	19274.833984375	64912.83203125	
528.6589965820313	30115.583984375	892634.8125	11351.1669921875	101168.0703125	71322.8359375	
529.8770141601563	25224.916015625	940018.9375	16561.833984375	23242.5	57046.66796875	
531.094970703125	26770.916015625	947469.125	31564.	10469.0830078125	130667.53125	
532.31298828125	37382.	848568.	20976.333984375	14296.5	55931.91796875	
533.531005859375	24790.5	910364.5	44615.5	9546.1669921875	145663.453125	
534.7490234375	30514.666015625	920866.6875	20772.083984375	10622.	87531.28125	
535.968017578125	29218.333984375	985635.8125	42633.58203125	18616.916015625	98498.8203125	
537.1859741210938	24490.25	1093078.375	24966.	16845.25	142941.984375	
538.4039916992188	24039.25	895239.125	43015.16796875	14289.25	73301.1484375	
539.6220092773438	31135.	990659.0625	31909.166015625	13071.	49575.5	
540.8400268554688	26586.25	1293610.	34688.5	13604.3330078125	92784.890625	
542.0579833984375	23052.916015625	863889.3125	15561.5830078125	13371.5830078125	52420.16796875	
543.2760009765625	24725.333984375	923015.25	10640.9169921875	10130.0830078125	35955.91796875	
544.4940185546875	26411.333984375	866126.375	13731.8330078125	21254.333984375	128902.953125	
545.7119750976563	26619.916015625	937272.1875	28150.083984375	14845.9169921875	53543.08203125	
546.9299926757813	22761.083984375	927465.9375	29656.5	9529.1669921875	32627.583984375	
548.1489868164063	21858.583984375	978228.	40464.12109375	9079.6669921875	65442.66796875	
549.3670043945313	21909.083984375	915595.	23734.75	6173.91650390625	58880.08203125	
550.5850219726563	65801.3125	841138.6875	19537.666015625	6674.75	46564.91796875	
551.802978515625	20923.583984375	911425.0625	19685.	13163.9169921875	28409.416015625	
553.02099609375	23178.333984375	882921.875	12905.8330078125	14183.8330078125	51749.	
554.239013671875	21433.	901610.5625	7017.	13108.1669921875	51570.91796875	
555.4569702148438	19529.083984375	947946.1875	13557.4169921875	4729.91650390625	48765.66796875	
556.6749877929688	23194.833984375	937165.875	19629.916015625	6733.08349609375	29731.166015625	
557.8930053710938	21967.	899392.1875	32547.416015625	3044.416748046875	28382.583984375	
559.1119995117188	21893.166015625	900955.125	7886.33349609375	6549.91650390625	28935.666015625	
560.3300170898438	21725.416015625	844731.0625	8972.	11685.4169921875	31509.75	
561.5479736328125	19052.916015625	851801.3125	34958.90234375	14175.1669921875	28006.333984375	
562.7659912109375	18768.916015625	860668.6875	49362.5	4329.41650390625	41052.41796875	
563.9840087890625	20514.416015625	931810.5	50443.54296875	13253.5	64054.7890625	
565.2020263671875	19720.916015625	953418.5625	21525.	9715.75	45238.	
566.4199829101563	20781.833984375	879199.5	10666.0830078125	4471.5	60425.140625	
567.6380004882813	19863.166015625	905698.75	8228.25	10622.5	141515.46875	
568.8560180664063	19912.916015625	840392.	11828.	26515.541015625	31202.333984375	
570.073974609375	20238.583984375	935665.125	10878.5830078125	8211.0830078125	79243.7578125	
571.2930297851563	20547.583984375	928860.375	14969.4169921875	5298.08349609375	170948.25	
572.510986328125	40229.5	928635.6875	30746.25	3094.583251953125	31302.083984375	
573.72900390625	20188.583984375	947238.4375	48872.80078125	10818.6669921875	30549.916015625	
574.947021484375	21182.333984375	913812.0625	22526.890625	8537.8330078125	27329.833984375	
576.1649780273438	20238.666015625	966660.3125	11799.	14330.0830078125	37576.41796875	
577.3829956054688	22318.333984375	1187314.125	51090.09375	18427.25	29000.583984375	
578.6010131835938	23253.583984375	930234.125	6575.16650390625	6132.25	32256.5	
579.8189697265625	20572.666015625	934756.	12793.75	4413.	102586.1875	
581.0369873046875	24434.5	979700.625	18910.583984375	9730.9169921875	66636.4609375	
582.2550048828125	24248.916015625	943572.375	23031.908203125	5556.33349609375	56595.2109375	
583.4739990234375	19880.	881323.75	5531.75	8555.0830078125	32281.583984375	
584.6920166015625	18451.75	937720.	27431.5	3862.25	33660.5	
585.9099731445313	20063.416015625	877978.6875	21279.083984375	7794.08349609375	26804.416015625	
587.1279907226563	24307.916015625	936501.3125	27804.138671875	10854.75	31401.75	
588.3460083007813	24565.833984375	940009.0625	2936.333251953125	5881.66650390625	194990.890625	
589.5640258789063	21073.75	951015.8125	13382.4169921875	11399.8330078125	31636.583984375	
590.781982421875	23229.583984375	935101.5	4129.41650390625	16525.416015625	116267.9453125	
592.	23095.583984375	1076921.375	4789.	8446.	24223.166015625	
593.218017578125	93291.875	1025932.4375	96571.9375	12785.4169921875	29143.333984375	
594.43701171875	22794.916015625	1090806.75	5590.16650390625	6599.5	27882.5	
595.655029296875	20773.	875572.	3003.	4821.83349609375	49446.58203125	
596.8729858398438	22101.583984375	948481.625	11793.5	26621.	27857.	
598.0910034179688	20071.833984375	1140648.25	13617.	4938.66650390625	29229.75	
599.3090209960938	23735.916015625	1022047.625	17248.	13888.4169921875	31474.166015625	
600.5269775390625	19545.5	899630.4375	5155.66650390625	7853.33349609375	57250.01171875	
601.7449951171875	24662.666015625	978432.375	9348.1669921875	6825.58349609375	52997.23046875	
602.9630126953125	19211.666015625	922923.3125	13287.6669921875	5556.33349609375	37698.91796875	
604.1810302734375	19871.333984375	963807.9375	37524.953125	6048.66650390625	29072.	
605.3989868164063	19061.25	990034.6875	9151.1669921875	4688.75	24381.833984375	
606.6179809570313	20965.166015625	897333.125	8599.5830078125	15763.1669921875	50868.5859375	
607.8359985351563	20097.25	1005686.5625	8511.0830078125	6115.83349609375	37898.	
609.0540161132813	20539.416015625	912249.3125	4972.5	5965.5	35182.83203125	
610.27197265625	20906.916015625	960186.	3604.166748046875	7579.33349609375	26520.333984375	
611.489990234375	24123.166015625	903837.5	19934.5	9715.8330078125	25501.	
612.7080078125	19913.166015625	899156.5625	19053.583984375	4179.91650390625	28450.25	
613.926025390625	18460.	1004070.75	11543.1669921875	10902.0830078125	57713.14453125	
615.1439819335938	21107.833984375	866617.5625	4832.33349609375	5515.08349609375	31345.583984375	
616.3619995117188	20556.083984375	864979.	80965.1171875	3712.166748046875	31246.	
617.5800170898438	19988.333984375	943730.625	13492.9169921875	8725.6669921875	26043.833984375	
618.7990112304688	19787.916015625	1032695.6875	20161.833984375	4821.91650390625	25710.083984375	
620.0170288085938	21115.416015625	940711.9375	14748.6669921875	6917.83349609375	26879.416015625	
621.2349853515625	19879.583984375	1394665.125	7511.	8520.75	145469.265625	
622.4530029296875	20580.833984375	928137.0625	3695.416748046875	15254.3330078125	31686.	
623.6710205078125	22110.083984375	865042.5625	32600.134765625	9687.	66745.7890625	
624.8889770507813	20080.083984375	881033.375	5975.58349609375	9582.	56707.92578125	
626.1069946289063	18552.	988836.	4004.416748046875	6567.91650390625	80345.1484375	
627.3250122070313	19612.416015625	963616.375	23511.666015625	10702.4169921875	54949.0390625	
628.5430297851563	20597.833984375	1063885.5	3411.666748046875	16996.583984375	37373.83203125	
629.760986328125	20722.833984375	996354.125	19914.083984375	3428.5	78163.7890625	
630.97998046875	18051.25	853735.6875	3045.166748046875	4138.	25868.583984375	
632.197998046875	20038.416015625	934018.	9358.5830078125	5932.33349609375	49955.42578125	
633.416015625	19629.583984375	855485.3125	3437.083251953125	4146.16650390625	28198.75	
634.6339721679688	19086.333984375	874501.3125	14281.4169921875	8913.4169921875	25400.666015625	
635.8519897460938	19428.833984375	922272.375	8854.9169921875	6017.5	47735.4140625	
637.0700073242188	18702.333984375	920660.25	4121.25	3687.083251953125	34614.33203125	
638.2880249023438	19587.583984375	971419.25	3186.416748046875	22521.5	25442.666015625	
639.5059814453125	19629.25	853736.	12665.1669921875	3845.666748046875	31721.	
640.7239990234375	20280.75	920373.6875	8498.5830078125	8437.0830078125	32320.25	
641.9429931640625	23891.	928556.875	5364.33349609375	4397.25	28025.416015625	
643.1610107421875	20531.416015625	978268.0625	3937.833251953125	5332.58349609375	26520.583984375	
644.3790283203125	19128.083984375	882423.3125	25431.	2727.5	27105.416015625	
645.5969848632813	19345.333984375	938785.625	9488.0830078125	24416.306640625	81469.484375	
646.8150024414063	21582.833984375	880939.8125	2343.75	8534.8330078125	29318.666015625	
648.0330200195313	20597.666015625	1072987.125	11844.6669921875	5231.16650390625	26294.25	
649.2509765625	22083.916015625	961530.1875	6100.25	6492.41650390625	36452.5	
650.468994140625	21215.333984375	913954.6875	10444.9169921875	15247.	44872.02734375	
651.68701171875	21232.75	901659.375	21601.517578125	36513.05859375	29010.333984375	
652.905029296875	23388.75	913543.75	33483.21484375	2877.75	26989.083984375	
654.1240234375	20890.166015625	889967.875	4990.5	4780.25	24958.166015625	
655.3419799804688	22770.166015625	1138599.125	8046.66650390625	5956.83349609375	39983.66796875	
656.5599975585938	20430.583984375	941786.	5298.41650390625	45460.65625	25960.333984375	
657.7780151367188	19545.75	858246.6875	3662.25	3954.583251953125	26303.666015625	
658.9959716796875	20013.25	977723.875	9635.5830078125	5023.91650390625	27515.333984375	
660.2139892578125	19796.333984375	964256.25	8714.0908203125	6043.33349609375	43363.66796875	
661.4320068359375	21975.75	999406.25	6300.33349609375	13572.25	26996.416015625	
662.6500244140625	19553.916015625	1025009.375	11386.4169921875	4195.91650390625	24707.5	
663.8679809570313	19537.416015625	890034.6875	2652.333251953125	6041.	27566.833984375	
665.0859985351563	20556.166015625	1019453.5	44777.77734375	4121.75	25433.75	
666.3049926757813	20931.75	892948.	129167.6796875	38265.08203125	51333.79296875	
667.5230102539063	21994.	897013.75	7895.91650390625	5340.16650390625	26528.333984375	
668.7410278320313	20013.25	926766.75	12027.5830078125	8397.5830078125	36555.83203125	
669.958984375	21006.916015625	890161.5625	967.25	19342.083984375	53408.421875	
671.177001953125	18702.25	864830.5	6368.75	28036.216796875	34558.33203125	
672.39501953125	19603.916015625	847512.	5857.75	5381.16650390625	33369.5	
673.6129760742188	20373.25	886606.6875	1284.333374023438	2777.666748046875	63519.83203125	
674.8309936523438	19437.	897968.125	6526.08349609375	11461.75	27682.333984375	
676.0490112304688	19295.166015625	1048290.9375	7909.91650390625	4188.	39365.16796875	
677.2680053710938	35730.58203125	922622.5	23417.083984375	9328.	25350.416015625	
678.4860229492188	19763.083984375	865596.6875	25029.833984375	7168.58349609375	38905.58203125	
679.7039794921875	19211.583984375	878981.	12225.4169921875	9533.6669921875	25150.333984375	
680.9219970703125	20639.5	816074.	2226.916748046875	6743.66650390625	38330.66796875	
682.1400146484375	19086.416015625	848696.	5882.41650390625	4713.25	51702.14453125	
683.3579711914063	19954.75	871546.	64979.58203125	4746.58349609375	69428.1640625	
684.5759887695313	22545.5	960356.0625	5114.66650390625	3102.916748046875	30227.5	
685.7940063476563	19821.	862225.3125	2302.	3612.416748046875	39552.33203125	
687.0120239257813	19879.833984375	851393.875	17831.03125	3102.916748046875	31921.666015625	
688.22998046875	19261.583984375	888388.3125	16589.	25604.4375	64485.26171875	
689.448974609375	21800.083984375	885365.5	3511.916748046875	2969.333251953125	26837.	
690.6669921875	19821.25	829907.3125	21543.416015625	4713.41650390625	25509.916015625	
691.885009765625	24205.75	878244.	1325.75	3169.75	39250.58203125	
693.10302734375	21558.166015625	829953.3125	26620.501953125	5775.5	25258.833984375	
694.3209838867188	24451.416015625	844023.6875	1884.833374023438	6983.75	30596.75	
695.5390014648438	19821.25	898070.0625	4739.5	3645.333251953125	26670.166015625	
696.7570190429688	20288.916015625	1053709.875	3646.416748046875	2410.5	26035.416015625	
697.9749755859375	20130.166015625	853614.6875	13548.4541015625	5080.91650390625	27373.333984375	
699.1929931640625	22870.	890858.6875	2226.916748046875	6208.41650390625	27664.666015625	
700.4110107421875	21658.333984375	890836.3125	9871.	4029.25	29254.25	
701.6300048828125	21692.333984375	1043040.6875	11742.9169921875	9071.6669921875	26286.333984375	
702.8480224609375	22001.25	916949.	4588.75	10850.4169921875	23279.25	
704.0659790039063	19796.333984375	865136.6875	3253.75	4898.	34726.5	
705.2839965820313	53699.2265625	866104.375	8775.6669921875	5113.91650390625	26947.	
706.5020141601563	20439.166015625	870062.75	5457.	6625.41650390625	24340.416015625	
707.719970703125	19779.25	1319092.5	9853.8330078125	7995.58349609375	26319.916015625	
708.93798828125	23914.75	850214.	983.8333129882813	4588.5	37914.83203125	
710.156005859375	20196.75	891690.0625	2519.333251953125	6124.33349609375	27349.083984375	
711.3740234375	19770.75	914107.625	4005.416748046875	4621.83349609375	24866.166015625	
712.593017578125	22218.583984375	868896.5625	3287.583251953125	4279.5	24599.	
713.8109741210938	20063.25	898998.6875	1843.25	2143.333251953125	26438.75	
715.0289916992188	20873.25	909310.6875	2218.75	4321.91650390625	25383.75	
716.2470092773438	23340.166015625	907443.5	23475.908203125	3478.5	26545.	
717.4650268554688	21742.416015625	940661.0625	1317.666625976563	4538.33349609375	26052.333984375	
718.6829833984375	23123.25	894317.875	1993.5	154430.921875	27965.5	
719.9010009765625	21541.583984375	889496.3125	8534.	13064.181640625	28048.833984375	
721.1190185546875	20431.	889821.3125	22829.25	12295.8330078125	26620.583984375	
722.3369750976563	20222.083984375	941351.5	1626.25	4087.666748046875	25910.333984375	
723.5549926757813	19821.166015625	921904.375	17874.333984375	4630.33349609375	34144.33203125	
724.7739868164063	21742.5	937238.5	1651.333374023438	4245.83349609375	24715.75	
725.9920043945313	23479.666015625	891296.125	900.5	3737.	23830.083984375	
727.2100219726563	23203.583984375	907452.	1909.916625976563	11183.1669921875	30263.333984375	
728.427978515625	24483.916015625	867430.1875	2343.75	9732.3330078125	25952.5	
729.64599609375	22861.666015625	989042.6875	12448.7998046875	4479.58349609375	24515.416015625	
730.864013671875	41562.91796875	878196.	4748.58349609375	8596.25	25968.75	
732.0819702148438	24699.25	856546.4375	3103.583251953125	5122.16650390625	26528.25	
733.2999877929688	25253.666015625	884285.125	1626.416625976563	4037.333251953125	26829.333984375	
734.5180053710938	24884.083984375	907821.625	3629.166748046875	3453.333251953125	24506.916015625	
735.7360229492188	25375.75	866268.6875	817.3333129882813	9121.9169921875	26110.833984375	
736.9550170898438	23805.166015625	895251.25	2886.416748046875	2519.083251953125	33101.58203125	
738.1729736328125	39220.41796875	908682.	1108.916625976563	20193.166015625	26394.666015625	
739.3909912109375	23624.083984375	873664.6875	1250.916625976563	2560.75	26211.75	
740.6090087890625	19353.5	969519.4375	3804.916748046875	10890.75	24164.416015625	
741.8270263671875	20054.75	849477.3125	1643.	8070.33349609375	24298.166015625	
743.0449829101563	27758.333984375	878207.9375	4583.25	3954.083251953125	25225.333984375	
744.2630004882813	22076.083984375	840128.	2227.	6358.41650390625	31028.833984375	
745.4810180664063	22644.166015625	914436.8125	6394.75	2627.25	26705.833984375	
746.698974609375	220971.90625	832554.	3671.25	7234.	51680.828125	
747.9169921875	31917.416015625	887698.6875	1793.416625976563	5965.16650390625	26749.833984375	
749.135986328125	22618.75	918490.875	5258.	7243.08349609375	30651.166015625	
750.35400390625	21675.083984375	880790.75	12300.1669921875	9253.4169921875	29971.166015625	
751.572021484375	20105.166015625	853848.0625	1985.166625976563	30290.7890625	29120.	
752.7899780273438	22552.083984375	855978.	2811.75	7485.75	26570.416015625	
754.0079956054688	23362.083984375	835996.	950.6666870117188	15742.5830078125	35360.75	
755.2260131835938	26145.916015625	872228.6875	3212.166748046875	4271.16650390625	30226.083984375	
756.4439697265625	25286.833984375	925992.125	5950.	3194.75	25601.5	
757.6619873046875	22243.416015625	916513.8125	6083.41650390625	14214.	32816.5	
758.8800048828125	25569.333984375	887664.875	4424.63623046875	9823.8330078125	40396.16796875	
760.0989990234375	24657.166015625	884765.625	10648.8330078125	25189.916015625	27824.416015625	
761.3170166015625	24239.5	977093.625	3362.833251953125	6282.	26595.583984375	
762.5349731445313	28985.833984375	873497.3125	5575.25	13265.25	27689.333984375	
763.7529907226563	28627.333984375	863969.3125	23419.916015625	22793.166015625	41846.16796875	
764.9710083007813	94692.953125	928991.625	5627.33349609375	5856.75	99845.8984375	
766.1890258789063	31127.75	911532.25	9394.5830078125	27339.416015625	23245.75	
767.406982421875	48401.25	923167.1875	28044.193359375	7484.	25893.416015625	
768.625	38192.83203125	1013764.875	2168.5	11795.1669921875	25233.5	
769.843017578125	58918.296875	928487.9375	1726.666625976563	108465.1015625	27749.25	
771.0609741210938	25173.181640625	887318.	4372.	15484.	26319.5	
772.280029296875	25876.25	980557.1875	4589.	21334.5	27657.083984375	
773.4979858398438	36162.33203125	832460.	1976.833374023438	9706.3330078125	44131.75	
774.7160034179688	29503.833984375	933883.8125	3128.666748046875	29657.75	27749.083984375	
775.9340209960938	37047.33203125	847559.3125	3345.833251953125	14352.4169921875	26478.25	
777.1519775390625	28268.	861753.3125	3412.833251953125	11527.3330078125	27948.25	
778.3699951171875	29097.583984375	972141.3125	5824.	11735.6669921875	47407.41796875	
779.5880126953125	33762.33203125	904872.625	2527.833251953125	9128.1669921875	27173.5	
780.8060302734375	28597.25	1028391.375	1167.416625976563	58812.24609375	28967.333984375	
782.0239868164063	26510.916015625	848356.	1292.666625976563	16286.6669921875	34741.58203125	
783.2420043945313	38740.765625	923866.0625	4858.91650390625	8704.	28642.083984375	
784.4609985351563	29511.166015625	850212.6875	3136.583251953125	15850.25	37141.75	
785.6790161132813	31963.166015625	873550.6875	11533.8330078125	12631.9169921875	26310.583984375	
786.89697265625	28361.75	985271.	1342.75	21620.416015625	24139.333984375	
788.114990234375	31260.666015625	961244.125	30572.916015625	11220.8330078125	23637.916015625	
789.3330078125	27744.5	920242.625	10917.4169921875	13499.0830078125	26202.666015625	
790.551025390625	28101.666015625	921973.6875	24226.	6424.83349609375	24273.25	
791.7689819335938	27377.083984375	830120.6875	3537.583251953125	21980.5	31981.333984375	
792.9869995117188	24908.75	852313.3125	4614.58349609375	4664.16650390625	28318.416015625	
794.2050170898438	23445.75	964543.5	3112.083251953125	6516.25	25083.75	
795.4240112304688	24601.75	876019.125	1860.	8051.91650390625	372973.9375	
796.6420288085938	39090.08203125	893674.125	9732.8330078125	12075.5830078125	25325.75	
797.8599853515625	23279.25	857447.3125	43615.75	4521.58349609375	51456.51171875	
799.0780029296875	23932.083984375	836352.	2393.833251953125	10195.75	24273.166015625	
800.2960205078125	22218.083984375	842936.	3529.75	6650.66650390625	28302.666015625	
801.5139770507813	23756.333984375	881188.9375	5499.	3653.583251953125	26888.5	
802.7319946289063	21558.333984375	834616.	72086.5859375	6994.58349609375	60641.2421875	
803.9500122070313	19353.666015625	931709.0625	5081.41650390625	8326.5	27055.916015625	
805.1680297851563	19779.333984375	835276.4375	15064.4169921875	5925.75	23921.833984375	
806.385986328125	26088.916015625	845044.	12050.6669921875	7211.16650390625	25150.25	
807.60498046875	23772.333984375	861319.1875	3706.166748046875	2468.75	27682.25	
808.822998046875	19620.916015625	902720.75	1259.333374023438	14944.1669921875	29400.5	
810.041015625	19871.25	901604.5625	22188.083984375	6361.33349609375	114241.8125	
811.2589721679688	23037.75	830521.6875	12105.75	2877.666748046875	30400.916015625	
812.4769897460938	19086.416015625	858662.6875	6591.66650390625	11877.75	30042.166015625	
813.6950073242188	21875.166015625	953602.625	45784.453125	5023.66650390625	27967.5	
814.9130249023438	18560.25	809612.	4213.58349609375	8225.3330078125	36625.83203125	
816.1309814453125	18718.916015625	919051.8125	4447.5	3069.666748046875	24866.25	
817.3489990234375	19846.25	878648.25	3086.583251953125	5023.25	29930.583984375	
818.5670166015625	18944.25	862441.25	7512.91650390625	5049.5	41133.66796875	
819.7860107421875	17925.833984375	831066.	21486.75	2085.083251953125	28934.666015625	
821.0040283203125	36239.91796875	808036.	49153.25	6492.	75684.65625	
822.2219848632813	18167.75	840178.3125	5056.41650390625	6225.83349609375	29770.	
823.4400024414063	35172.296875	836330.	1985.25	2827.75	96494.765625	
824.6580200195313	22244.25	858741.625	2385.583251953125	2452.416748046875	50035.25	
825.8759765625	19779.583984375	858503.3125	12108.	2168.5	29731.333984375	
827.093994140625	19353.583984375	940095.3125	5508.08349609375	9408.1669921875	33008.83203125	
828.31201171875	20831.666015625	828039.5	12439.75	3337.25	66505.9453125	
829.530029296875	21785.083984375	832906.	5843.16650390625	23570.416015625	37613.83203125	
830.7479858398438	19712.666015625	930797.	10374.1669921875	6645.25	26528.666015625	
831.9669799804688	18852.583984375	986951.4375	11908.6669921875	3462.083251953125	27121.333984375	
833.1849975585938	19687.416015625	1033876.25	36103.08203125	18908.833984375	50126.66796875	
834.4030151367188	22354.166015625	838258.6875	18710.666015625	7502.75	32104.083984375	
835.6209716796875	19529.083984375	921875.1875	9376.5	12868.	38897.	
836.8389892578125	18986.166015625	1222428.5	17091.5	10225.75	56315.7265625	
838.0570068359375	24919.333984375	843527.125	9257.1669921875	16829.25	36283.33203125	
839.2750244140625	21024.833984375	972653.875	4221.33349609375	177908.296875	36660.08203125	
840.4929809570313	18343.333984375	884291.3125	3804.833251953125	3487.166748046875	31997.666015625	
841.7109985351563	21800.666015625	862025.0625	2477.5	2902.75	45683.3203125	
842.9299926757813	20581.	981408.875	13052.0830078125	12358.4169921875	46436.	
844.1480102539063	24346.75	845760.375	2285.333251953125	8636.	35657.	
845.3660278320313	22577.416015625	849677.75	3053.	4104.75	69953.9375	
846.583984375	19721.083984375	859918.5	16343.5	8682.6669921875	35074.66796875	
847.802001953125	19027.916015625	804500.375	5290.	24768.083984375	37633.16796875	
849.02001953125	17850.416015625	859177.5	19051.25	24210.5	148375.046875	
850.2379760742188	33711.15625	845706.25	22420.078125	2994.5	66906.5859375	
851.4559936523438	20597.75	1120265.75	87711.5390625	18627.083984375	36021.	
852.6740112304688	25560.833984375	816510.	4288.25	4889.91650390625	48552.45703125	
853.8920288085938	19320.	973829.3125	129494.5859375	11024.9169921875	57815.95703125	
855.1110229492188	22344.166015625	845771.5	23295.416015625	20260.083984375	49188.2578125	
856.3289794921875	19278.666015625	881934.5625	48997.01171875	20292.091796875	46640.	
857.5469970703125	18911.	976091.6875	36177.41796875	9243.4169921875	45630.75	
858.7650146484375	20982.	830213.3125	13862.25	6853.91650390625	48103.75	
859.9829711914063	20757.583984375	887675.9375	6610.83349609375	4606.	45764.74609375	
861.2009887695313	18861.	876391.4375	14930.5830078125	13593.75	42745.83203125	
862.4190063476563	29457.083984375	866446.8125	3445.833251953125	6150.41650390625	26706.208984375	
863.6370239257813	22167.75	901500.125	29479.333984375	3695.5	25718.	
864.85498046875	20890.	834869.3125	22850.734375	5323.33349609375	42997.91796875	
866.072998046875	20196.916015625	853428.5	4029.583251953125	4505.16650390625	69062.1875	
867.2919921875	20999.25	867506.25	11716.75	12348.75	29905.666015625	
868.510009765625	18318.333984375	832322.6875	20012.083984375	5089.41650390625	46845.58203125	
869.72802734375	19170.916015625	992106.25	1784.75	2669.083251953125	54672.10546875	
870.9459838867188	24852.166015625	850233.75	9437.0830078125	2685.666748046875	31777.75	
872.1640014648438	16990.583984375	839224.	14741.5	3503.666748046875	83089.578125	
873.3820190429688	16973.916015625	898054.5	2360.333251953125	7455.58349609375	58155.671875	
874.5999755859375	19244.916015625	808838.6875	2360.666748046875	2710.916748046875	33893.75	
875.8179931640625	20639.75	829660.	1501.166625976563	4373.25	32353.333984375	
877.0360107421875	86918.1015625	848314.6875	3412.25	3854.416748046875	34253.75	
878.2550048828125	19679.166015625	824876.	1785.	2326.916748046875	28875.5	
879.4730224609375	18385.	822784.	4340.58349609375	1584.5	27037.916015625	
880.6909790039063	78882.3046875	819886.9375	2160.583251953125	3453.833251953125	28962.583984375	
881.9089965820313	20631.416015625	817587.3125	5920.33349609375	1717.916625976563	28936.583984375	
883.1270141601563	19387.	807492.6875	3670.666748046875	10363.9169921875	27476.25	
884.344970703125	21518.75	807248.6875	758.5833129882813	2143.416748046875	56005.64453125	
885.56298828125	32880.66796875	813477.3125	2385.75	1959.916625976563	31804.166015625	
886.781005859375	21148.916015625	774723.3125	3563.	4263.83349609375	32901.08203125	
887.9990234375	18151.166015625	814979.3125	1785.	2519.	33377.25	
889.2169799804688	19287.166015625	848694.6875	1300.916625976563	2761.083251953125	28166.333984375	
890.4359741210938	21375.	806208.	1025.666625976563	3762.416748046875	419943.8125	
891.6539916992188	21860.666015625	835390.625	1685.	3220.666748046875	25308.75	
892.8720092773438	22329.166015625	842775.3125	4857.08349609375	2735.833251953125	26395.	
894.0900268554688	19813.333984375	827672.6875	883.8333129882813	19075.583984375	34071.83203125	
895.3079833984375	31358.75	826338.6875	1401.166625976563	5819.41650390625	27533.75	
896.5260009765625	20355.5	852882.6875	5942.5	2218.583251953125	26479.	
897.7440185546875	18960.916015625	920060.0625	2002.25	2619.083251953125	25417.833984375	
898.9619750976563	21032.083984375	867128.875	1226.	2535.666748046875	25150.	
900.1799926757813	18284.666015625	858518.	4096.58349609375	2769.5	29053.	
901.3980102539063	19545.5	906557.6875	6036.91650390625	2368.833251953125	24615.833984375	
902.6170043945313	19871.5	835413.3125	825.3333129882813	5406.75	31164.166015625	
903.8350219726563	19545.75	955059.25	1442.916625976563	1976.583374023438	38056.	
905.052978515625	22218.416015625	846645.3125	1626.25	3103.166748046875	35183.75	
906.27099609375	20798.25	883441.3125	1517.833374023438	18381.5	25459.25	
907.489013671875	19144.833984375	815990.	1434.416625976563	2477.416748046875	33778.66796875	
908.7069702148438	25906.25	929993.75	2002.166625976563	6333.91650390625	34911.75	
909.9249877929688	19704.	865063.125	59823.65625	12833.6669921875	31689.583984375	
911.1430053710938	22160.083984375	816188.	6152.16650390625	7019.5	45828.26171875	
912.3610229492188	21132.25	882008.	3203.583251953125	2602.333251953125	55741.57421875	
913.5800170898438	19620.75	815796.	1092.333374023438	4113.33349609375	30609.916015625	
914.7979736328125	20756.416015625	844804.6875	2544.083251953125	3036.75	29822.25	
916.0159912109375	30183.666015625	827565.3125	3689.5	17412.	35416.5	
917.2340087890625	17900.5	923522.625	900.5833129882813	11381.1669921875	58387.5078125	
918.4520263671875	21560.416015625	920216.	1025.666625976563	3920.666748046875	27122.583984375	
919.6699829101563	18810.833984375	885604.	550.1666870117188	4939.16650390625	29271.583984375	
920.8880004882813	19169.916015625	898761.25	1776.75	5491.16650390625	25743.583984375	
922.1060180664063	27873.666015625	810454.	6915.75	1684.75	29758.666015625	
923.323974609375	19613.166015625	818188.	2352.25	7433.75	27304.916015625	
924.5419921875	18902.5	867970.8125	4004.833251953125	4171.5	30064.5	
925.760986328125	19629.083984375	818636.	4038.416748046875	4380.33349609375	29503.25	
926.97900390625	19696.083984375	819969.75	18919.	5499.83349609375	28368.75	
928.197021484375	19236.916015625	843074.6875	1267.583374023438	3111.333251953125	52184.96484375	
929.4149780273438	19587.416015625	826298.6875	2878.083251953125	14498.8330078125	33423.83203125	
930.6329956054688	19220.083984375	1103586.125	1142.416625976563	1734.666625976563	28936.916015625	
931.8510131835938	19495.333984375	839620.	1009.083312988281	3829.333251953125	25250.666015625	
933.0689697265625	21207.5	855571.125	1050.75	10091.75	25735.166015625	
934.2869873046875	18585.333984375	954162.9375	8515.6669921875	2535.583251953125	27849.25	
935.5050048828125	19620.75	887056.	917.0833129882813	2277.25	34977.5	
936.7230224609375	17959.166015625	917016.375	11790.	19937.25	31460.083984375	
937.9420166015625	18142.666015625	877180.75	3679.416748046875	14695.8330078125	48746.16015625	
939.1599731445313	19053.	827993.3125	2485.583251953125	13549.	29097.666015625	
940.3779907226563	18159.5	855902.8125	4953.818359375	2318.75	32703.916015625	
941.5960083007813	20088.666015625	896340.1875	2894.916748046875	3078.	29529.583984375	
942.8140258789063	19362.75	818868.	13387.6669921875	6376.91650390625	33768.33203125	
944.031982421875	25995.5	828995.375	1901.583374023438	2435.666748046875	31368.	
945.25	20196.833984375	864952.5	1843.166625976563	3186.583251953125	32492.083984375	
946.468017578125	26760.166015625	832544.	3094.916748046875	6768.5	26729.416015625	
947.6859741210938	19103.	849174.6875	3422.	6633.16650390625	27137.916015625	
948.9039916992188	20230.416015625	843008.	1684.75	4738.58349609375	27071.666015625	
950.1229858398438	22100.916015625	842418.5625	1843.416625976563	5749.41650390625	25008.166015625	
951.3410034179688	22017.666015625	853255.3125	2419.	6191.16650390625	27131.166015625	
952.5590209960938	29160.333984375	894307.8125	4323.5	8483.9169921875	25492.583984375	
953.7769775390625	22793.833984375	1027858.875	1710.083374023438	15664.5830078125	29924.833984375	
954.9949951171875	34740.	3066865.5	4813.33349609375	139854.8125	37727.25	
956.2130126953125	32183.25	11421735.	13927.5830078125	562655.875	47802.75	
957.4310302734375	55170.	29974414.	27222.583984375	1234158.5	83794.5	
958.6489868164063	99791.1640625	59333420.	48766.08203125	2204769.75	111019.3359375	
959.8670043945313	193943.953125	99421936.	72371.9140625	3045985.5	157506.328125	
961.0859985351563	182900.328125	135942224.	88466.4140625	3667108.	187057.828125	
962.3040161132813	269476.	153128512.	100188.75	4409763.	201509.828125	
963.52197265625	221672.	165903648.	91560.4140625	4482259.5	200879.828125	
964.739990234375	227654.5	151248864.	89226.75	4005901.75	194808.328125	
965.9580078125	209539.984375	140679840.	80945.	3919641.5	178509.5	
967.176025390625	272335.65625	128024752.	78915.1640625	3080880.25	162722.328125	
968.3939819335938	291213.03125	114253768.	67765.6640625	3482596.	173634.515625	
969.6119995117188	251787.953125	103563240.	73632.1640625	3313109.	135872.421875	
970.8300170898438	178824.734375	93593144.	54581.83203125	2781429.	122686.6640625	
972.0479736328125	166622.3125	81414888.	46816.08203125	2405613.	109496.0859375	
973.2670288085938	169380.828125	74299472.	44241.91796875	1945895.75	106092.3359375	
974.4849853515625	125056.1640625	62183024.	52202.91796875	2042611.125	92489.5859375	
