Trace for Mass:	Al27(MR)	Si28(MR)	Ca44(MR)	Fe56(MR)	S32(MR)
Resolution:	Medium	Medium	Medium	Medium	Medium
					
Time	Intensity	Intensity	Intensity	Intensity	Intensity
[sec]	[cps]	[cps]	[cps]	[cps]	[cps]

1.22000002861023	2143.416748046875	812583.3125	191.6666717529297	1117.416625976563	27748.	
2.437999963760376	1726.416625976563	840780.	133.3333282470703	1342.583374023438	26578.25	
3.655999898910523	1419.181762695313	795669.8125	200.	1367.5	27439.083984375	
4.874000072479248	1519.363647460938	780366.375	175.	1125.5	27664.5	
6.092000007629395	1400.833374023438	749236.	208.3333282470703	1626.25	25642.916015625	
7.309999942779541	11288.22265625	746724.	375.	6016.08349609375	27802.818359375	
8.527999877929688	45740.35546875	784016.	1593.25	5097.	28313.	
9.746000289916992	3976.54541015625	800318.375	1476.083374023438	7625.75	28122.2734375	
10.96500015258789	8945.5	799070.375	4122.33349609375	23130.75	28705.2734375	
12.18299961090088	5147.08349609375	800578.6875	2719.25	9662.3330078125	29111.900390625	
13.40100002288818	4244.60009765625	816807.125	2010.25	9513.8330078125	25671.091796875	
14.61900043487549	6135.41650390625	803619.1875	2322.	10090.8330078125	40291.80078125	
15.83699989318848	10841.	776800.8125	3361.75	9278.5830078125	31378.69921875	
17.05500030517578	20313.375	770794.6875	3037.083251953125	19940.333984375	28068.908203125	
18.27300071716309	43539.62109375	731559.125	1919.636352539063	42421.	28662.69921875	
19.49099922180176	3175.727294921875	717550.25	2135.25	8569.1669921875	27688.5	
20.70899963378906	10262.4443359375	699553.75	1701.583374023438	6741.	24933.181640625	
21.92700004577637	2338.54541015625	701501.75	23259.69921875	10398.9169921875	25835.7265625	
23.14599990844727	6563.54541015625	743570.8125	2224.4443359375	7785.08349609375	26235.19921875	
24.36400032043457	4324.60009765625	698819.125	709.3636474609375	8672.1669921875	27197.5	
25.58200073242188	2001.727294921875	680161.75	650.25	4988.58349609375	28460.599609375	
26.79999923706055	2335.416748046875	687315.125	541.8333129882813	17311.416015625	26400.181640625	
28.01799964904785	2485.666748046875	677061.3125	533.5	3136.333251953125	26635.69921875	
29.23600006103516	2810.833251953125	700802.25	10302.375	7178.91650390625	26034.	
30.45400047302246	2385.75	683444.875	1546.636352539063	11269.25	26976.900390625	
31.67200088500977	3043.	687961.75	525.1666870117188	5347.66650390625	20579.416015625	
32.88999938964844	1459.5	725802.3125	2878.666748046875	26161.083984375	32388.69921875	
34.10900115966797	4505.16650390625	694654.25	12506.3330078125	18602.	28982.30078125	
35.32699966430664	2485.833251953125	732109.3125	3213.800048828125	13932.6669921875	27533.416015625	
36.54499816894531	5924.83349609375	681721.3125	2802.75	14014.5830078125	25899.36328125	
37.76300048828125	3837.416748046875	679884.4375	10270.1669921875	20476.083984375	38214.36328125	
38.98099899291992	3161.5	752031.875	34743.91796875	15592.75	31360.818359375	
40.19900131225586	5881.83349609375	693341.3125	3536.916748046875	18801.25	132279.046875	
41.41699981689453	20784.77734375	690277.75	22274.80078125	15222.8330078125	44225.8984375	
42.6349983215332	18225.900390625	712815.125	12216.9169921875	23562.916015625	47224.63671875	
43.85300064086914	29721.904296875	704217.75	9221.3330078125	11615.8330078125	56776.8984375	
45.07099914550781	9232.	700038.6875	21684.666015625	249843.140625	32940.7265625	
46.29000091552734	5656.91650390625	787127.5625	8720.5830078125	38587.140625	29455.19921875	
47.50799942016602	11964.22265625	724770.6875	9815.75	19613.333984375	43491.30078125	
48.72600173950195	8020.7998046875	829102.6875	7855.33349609375	11590.4169921875	48993.41796875	
49.94400024414063	2978.75	769321.75	8535.0830078125	24882.166015625	30296.19921875	
51.1619987487793	4437.91650390625	726815.5625	8481.7998046875	9595.5	32295.	
52.38000106811523	2427.25	734303.3125	3846.166748046875	13345.	29481.36328125	
53.59799957275391	3621.083251953125	761624.	18774.833984375	10605.75	32921.58203125	
54.81600189208984	4387.75	703872.	7718.5	33913.25	85116.90625	
56.03400039672852	13157.2001953125	770047.5625	3437.166748046875	13285.5830078125	29875.69921875	
57.25199890136719	19578.125	726753.25	10059.1669921875	9978.5	43107.5546875	
58.47100067138672	2986.166748046875	728098.	5850.83349609375	6507.66650390625	36045.22265625	
59.68899917602539	6475.111328125	749024.	2001.75	5856.58349609375	31821.19921875	
60.90700149536133	3587.25	699190.6875	6922.63623046875	30206.833984375	36129.19921875	
62.125	1567.833374023438	688991.5625	2060.166748046875	24819.30078125	70511.78125	
63.34299850463867	4349.111328125	754422.4375	15765.5830078125	14871.1669921875	27666.181640625	
64.56099700927734	3213.10009765625	659893.4375	6166.33349609375	3686.916748046875	26144.900390625	
65.77899932861328	3412.9091796875	721379.125	4663.41650390625	5464.75	57333.1171875	
66.99700164794922	3438.583251953125	690734.25	6560.33349609375	10448.	33696.1015625	
68.21499633789063	8345.4169921875	703265.75	13636.4169921875	40203.25	52064.8984375	
69.43399810791016	7642.5	762993.875	13948.8330078125	22855.666015625	60583.30078125	
70.65200042724609	18429.166015625	732981.3125	38927.58203125	33132.5	25234.666015625	
71.87000274658203	8652.75	716061.3125	74989.25	39083.16796875	104333.6640625	
73.08799743652344	30898.	795841.25	10242.1669921875	41493.83203125	32687.80078125	
74.30599975585938	23762.599609375	707228.4375	10468.3330078125	52867.83203125	30375.69921875	
75.52400207519531	32874.80078125	717239.125	33624.63671875	40020.66796875	33809.1015625	
76.74199676513672	100982.9921875	718569.75	6899.66650390625	56012.33203125	36584.69921875	
77.95999908447266	18411.7265625	688612.4375	14912.4169921875	37354.33203125	52445.	
79.17800140380859	19921.5	755504.25	4479.66650390625	36217.	28542.455078125	
80.39600372314453	16014.7275390625	778496.4375	5355.66650390625	43542.58203125	42138.22265625	
81.61499786376953	15312.400390625	788844.6875	5839.83349609375	25685.5	26628.36328125	
82.83300018310547	9486.75	681891.125	18707.5	25430.083984375	28892.	
84.05100250244141	11006.	713202.0625	6216.36376953125	19496.416015625	27402.908203125	
85.26899719238281	19259.166015625	712627.125	12543.099609375	25908.75	42249.109375	
86.48699951171875	15775.8330078125	691089.3125	6576.75	17185.25	31981.5	
87.70500183105469	6170.45458984375	658173.3125	5506.33349609375	13286.	36072.08984375	
88.92299652099609	8377.8330078125	657588.	2727.416748046875	14100.9091796875	28913.69921875	
90.14099884033203	3136.25	705443.5625	4196.	13183.9169921875	30018.25	
91.35900115966797	5626.10009765625	691093.3125	8662.5	9913.1669921875	32701.	
92.57700347900391	4674.7998046875	666558.6875	3312.583251953125	12046.25	26646.099609375	
93.79599761962891	3773.699951171875	699662.25	3020.	8119.41650390625	27327.80078125	
95.01399993896484	3570.22216796875	692368.4375	5239.888671875	9082.25	29855.5	
96.23200225830078	1918.166625976563	733633.375	2994.833251953125	30706.078125	29253.599609375	
97.44999694824219	2893.45458984375	696237.3125	1175.916625976563	4488.	31347.091796875	
98.66799926757813	2274.636474609375	691657.3125	3262.25	10713.6669921875	25617.2734375	
99.88600158691406	7099.0908203125	802291.5	2352.333251953125	22463.333984375	27788.900390625	
101.1039962768555	11373.3330078125	704395.125	3345.416748046875	33310.33203125	27516.583984375	
102.3219985961914	18397.333984375	752203.125	52371.5546875	53498.75	27077.400390625	
103.5400009155273	41451.5	753828.875	2485.583251953125	46497.66796875	38429.19921875	
104.7580032348633	12292.0830078125	731796.	4733.75	34200.08203125	26214.69921875	
105.9769973754883	15747.6669921875	765127.8125	2046.909057617188	23899.166015625	71712.4609375	
107.1949996948242	13191.0908203125	726082.6875	8730.	63855.72265625	27288.099609375	
108.4130020141602	9763.5830078125	712716.4375	11653.099609375	18479.916015625	28707.181640625	
109.6309967041016	9491.7998046875	707401.3125	15521.9169921875	15398.	27197.30078125	
110.8489990234375	8851.900390625	731613.9375	900.6666870117188	10497.25	27177.181640625	
112.0670013427734	7327.	708807.5625	3178.25	17205.416015625	28811.599609375	
113.2850036621094	13868.3330078125	806582.3125	33340.9921875	24517.916015625	28612.099609375	
114.5029983520508	5242.0908203125	687558.6875	2933.10009765625	8527.25	35775.1015625	
115.7210006713867	9613.400390625	811114.5625	33699.75	10981.25	29925.80078125	
116.9400024414063	9512.888671875	709325.75	2252.083251953125	22980.583984375	30779.5	
118.1579971313477	11506.63671875	719282.6875	6646.5	25465.916015625	29874.599609375	
119.3759994506836	11557.5830078125	728160.4375	3628.583251953125	30665.916015625	31949.181640625	
120.5940017700195	18003.818359375	752791.125	15263.5830078125	26022.	28187.7265625	
121.8119964599609	16017.	708045.3125	4104.25	29171.166015625	29202.80078125	
123.0299987792969	13068.	799140.4375	3778.833251953125	47564.16796875	25821.083984375	
124.2480010986328	14841.5	762230.25	5756.5	26214.	41600.66796875	
125.4660034179688	14511.400390625	772134.8125	12238.3330078125	26215.	54744.33203125	
126.6839981079102	13684.	829878.375	10459.8330078125	30307.	34347.	
127.9020004272461	13302.0830078125	822003.875	13258.63671875	38636.58203125	30968.181640625	
129.1210021972656	9532.	861390.625	23010.7265625	40331.25	109355.640625	
130.3390045166016	8219.0908203125	769095.125	22393.908203125	26576.083984375	93408.234375	
131.5570068359375	417357.5	817032.875	14130.7275390625	29833.818359375	46141.6015625	
132.7749938964844	7590.818359375	787372.4375	18955.583984375	24974.	35613.83203125	
133.9929962158203	14120.6669921875	818120.3125	13161.1669921875	18398.833984375	56352.36328125	
135.2109985351563	7071.72705078125	830577.75	31282.833984375	20992.5	82773.5	
136.4290008544922	18395.111328125	795627.5625	9562.25	26355.5	58979.3984375	
137.6470031738281	5943.0908203125	725650.0625	24687.	13735.5830078125	33328.16796875	
138.8650054931641	7520.	775424.	13685.6669921875	18914.	44138.1015625	
140.0829925537109	5069.181640625	789622.25	49612.5	17036.25	46058.546875	
141.302001953125	4454.75	760121.	24291.	22690.181640625	85357.90625	
142.5200042724609	6835.36376953125	776459.375	50702.75	16048.25	64802.80078125	
143.7380065917969	7677.58349609375	794488.6875	31555.	26053.083984375	77518.7265625	
144.9559936523438	6863.77783203125	774387.75	57079.16796875	50225.41796875	60557.66796875	
146.1739959716797	8874.818359375	898687.125	38772.2734375	38915.33203125	142571.9375	
147.3919982910156	12986.25	911863.4375	53508.08203125	32996.16796875	110334.1015625	
148.6100006103516	10665.099609375	849014.875	60796.546875	35846.33203125	85166.1640625	
149.8280029296875	10164.8330078125	901861.25	33361.66796875	40389.08203125	163377.859375	
151.0460052490234	12804.6669921875	825514.6875	109801.640625	42265.66796875	79505.5	
152.2649993896484	16109.2998046875	905978.4375	98072.4296875	50134.25	92965.796875	
153.4830017089844	13518.7275390625	827056.4375	47787.	44189.5	139008.21875	
154.7010040283203	11926.	870435.5	71586.9140625	39806.25	117460.5	
155.9190063476563	32469.75	845985.75	77205.546875	65450.796875	85860.5	
157.1369934082031	14823.4541015625	786281.75	61413.58203125	75975.734375	240841.703125	
158.3549957275391	12825.8330078125	910398.	69656.546875	47888.75	83582.1015625	
159.572998046875	30279.	904535.8125	48028.	42233.75	101908.5546875	
160.7910003662109	11771.2724609375	869815.5625	107186.6171875	43906.83203125	131047.4609375	
162.0090026855469	7108.33349609375	907458.1875	99345.8671875	27325.916015625	104501.796875	
163.2270050048828	7233.16650390625	992889.5	79984.5859375	37759.5	99918.3671875	
164.4459991455078	15609.63671875	915725.25	79307.2265625	32687.	124182.703125	
165.6640014648438	6570.818359375	883295.5	224916.203125	34317.16796875	96103.6484375	
166.8820037841797	19178.333984375	861991.125	84919.5	57186.75	96085.7265625	
168.1000061035156	12535.63671875	858926.25	80289.34375	25078.75	72506.8359375	
169.3179931640625	14480.7001953125	1107084.5	79027.921875	36491.25	84490.	
170.5359954833984	4896.83349609375	985910.375	61676.33203125	69862.8203125	157348.171875	
171.7539978027344	6999.91650390625	829260.8125	86870.1953125	47104.75	61328.81640625	
172.9720001220703	19610.888671875	879844.8125	66391.	38761.41796875	99806.265625	
174.1900024414063	10689.4169921875	946957.5625	57854.66796875	37557.	92234.890625	
175.4080047607422	22748.583984375	914785.	57215.83203125	29863.583984375	176271.703125	
176.6269989013672	9996.4541015625	837415.125	48168.5	42033.58203125	63469.41796875	
177.8450012207031	15721.3330078125	866717.3125	87035.3359375	28564.833984375	87754.75	
179.0630035400391	8838.0908203125	1174722.75	62262.	83733.75	100273.3359375	
180.281005859375	17142.166015625	1037069.1875	77522.1640625	49869.66796875	83567.5859375	
181.4989929199219	8871.25	890445.875	62388.84375	179300.5625	169485.671875	
182.7169952392578	18365.7265625	1323024.	94692.25	38373.91796875	120823.1640625	
183.9349975585938	7625.75	885550.25	85149.546875	61290.2734375	128864.15625	
185.1529998779297	12897.5	971227.	96951.	62372.83203125	191229.8125	
186.3710021972656	21060.900390625	883453.5625	130724.3359375	66636.453125	214682.21875	
187.5899963378906	14094.5	935798.125	136250.265625	53109.58203125	107730.453125	
188.8079986572266	15133.5	1031061.25	98529.1640625	100116.375	131695.265625	
190.0260009765625	16544.19921875	1070786.125	100203.4140625	69323.4140625	145454.859375	
191.2440032958984	21716.099609375	940223.3125	121869.0859375	89498.9140625	100323.296875	
192.4620056152344	16084.0830078125	1092490.	122706.796875	117289.640625	136016.53125	
193.6799926757813	12270.63671875	987608.875	81658.546875	42246.16796875	94844.453125	
194.8979949951172	7909.33349609375	977597.125	56775.33203125	46043.91796875	78945.09375	
196.1159973144531	8234.9169921875	994326.3125	95171.109375	50781.41796875	193888.625	
197.3339996337891	13573.181640625	997050.75	102520.5390625	45897.58203125	81002.9765625	
198.552001953125	16095.111328125	968080.5	117161.6328125	42940.58203125	72168.7265625	
199.77099609375	11096.099609375	921602.4375	43127.58203125	30652.583984375	73590.	
200.9889984130859	10596.4541015625	913832.875	30122.583984375	30959.666015625	170323.5625	
202.2070007324219	112771.875	846797.5625	120989.203125	21637.333984375	168439.515625	
203.4250030517578	6887.89990234375	1198687.375	56505.70703125	34176.41796875	204019.171875	
204.6430053710938	6959.91650390625	877498.6875	75006.2890625	24454.583984375	97738.8984375	
205.8609924316406	6632.41650390625	871528.875	83592.28125	30501.916015625	107307.7265625	
207.0789947509766	6398.75	892677.6875	29778.666015625	28472.416015625	75969.	
208.2969970703125	7467.5	869263.1875	57642.16796875	21788.333984375	80751.90625	
209.5149993896484	7319.2001953125	910314.8125	48523.83203125	44129.25	60639.453125	
210.7330017089844	9666.7275390625	821903.125	45705.5	38156.16796875	105084.8203125	
211.9519958496094	10844.5	925069.1875	29549.333984375	31215.083984375	66999.5	
213.1699981689453	6884.25	911023.8125	40960.91796875	36810.25	40794.28515625	
214.3880004882813	9186.9169921875	851838.	119368.0859375	25313.5	80389.5	
215.6060028076172	16001.	853129.375	30971.69921875	29556.5	62976.18359375	
216.8240051269531	9311.36328125	843940.75	42385.08203125	47727.16796875	117589.6015625	
218.0420074462891	12263.4541015625	908222.625	90510.75	41363.83203125	105176.703125	
219.2599945068359	12696.111328125	898284.625	180836.09375	39396.16796875	186130.140625	
220.4779968261719	11766.2998046875	1013455.125	79416.7421875	67570.3359375	166493.453125	
221.6959991455078	15023.181640625	1085244.75	212871.125	53280.	413551.78125	
222.9149932861328	13957.63671875	1070516.125	319292.3125	105962.9296875	803653.9375	
224.1329956054688	13600.599609375	1259746.25	363286.90625	115712.8359375	379313.0625	
225.3509979248047	15340.63671875	1485802.375	385946.6875	146596.390625	322977.6875	
226.5690002441406	16195.5	1465155.75	308240.	152545.859375	786533.1875	
227.7870025634766	15283.5	1391557.75	411244.46875	126849.8359375	406189.3125	
229.0050048828125	17137.	1802658.75	278679.28125	98994.75	300968.	
230.2230072021484	11679.181640625	1174054.625	356959.71875	105756.9140625	572125.625	
231.4409942626953	16224.3330078125	1346939.375	321174.875	106295.203125	369936.1875	
232.6589965820313	11905.900390625	1469126.375	243605.1875	117583.359375	312060.84375	
233.8769989013672	11048.0830078125	1470648.375	206885.375	105857.421875	454216.25	
235.0959930419922	16234.2001953125	1186309.75	236287.328125	77497.3359375	229279.828125	
236.3139953613281	10140.0908203125	1296942.75	264743.625	76563.5859375	333696.875	
237.5319976806641	16090.6669921875	1702399.625	194449.828125	87695.3359375	268497.90625	
238.75	8109.5	1086791.125	311821.4375	128517.3203125	501025.40625	
239.9680023193359	10540.63671875	1209297.125	201202.265625	79426.4609375	329965.90625	
241.1860046386719	9138.9091796875	1152634.	148917.328125	82307.6640625	459850.6875	
242.4040069580078	9673.2001953125	1005423.6875	218055.8125	58992.58203125	221115.21875	
243.6219940185547	9040.900390625	1121412.	102600.4140625	72386.0859375	190163.171875	
244.8399963378906	9151.2998046875	1033052.6875	118554.	103719.1015625	249593.640625	
246.0579986572266	7558.89990234375	1093020.875	173380.8125	64696.41796875	407355.71875	
247.2769927978516	6525.63623046875	985747.1875	126635.4140625	56050.75	113416.453125	
248.4949951171875	7168.5	1058703.25	111465.5859375	39231.58203125	195694.59375	
249.7129974365234	6978.10009765625	1063156.25	127429.09375	36966.75	207814.984375	
250.9309997558594	5247.41650390625	1567764.125	240496.875	73831.9140625	254658.375	
252.1490020751953	7819.5	1193133.	160593.265625	74302.25	185481.65625	
253.3670043945313	10951.181640625	1623392.625	194510.	110562.9140625	428620.375	
254.5850067138672	9129.818359375	1167719.25	209272.484375	66075.	323383.8125	
255.8029937744141	14411.099609375	1372509.125	305425.15625	77860.6640625	367102.90625	
257.02099609375	11525.7001953125	1499608.25	413871.375	114205.8359375	371924.8125	
258.239990234375	14491.2001953125	1244060.125	319151.5	137558.125	345648.78125	
259.4580078125	10941.818359375	1351916.625	471396.40625	118718.765625	482705.	
260.6759948730469	15764.9091796875	1255987.625	472670.0625	149162.	464620.46875	
261.8940124511719	11224.63671875	1373287.75	324090.15625	134185.078125	740082.6875	
263.1119995117188	9967.36328125	1398613.75	402861.4375	161883.875	446032.125	
264.3299865722656	13661.4169921875	1671846.75	357379.21875	212387.015625	689375.6875	
265.5480041503906	15994.5	1249217.	408776.8125	111823.0859375	578357.625	
266.7659912109375	21025.5546875	1353196.5	348117.0625	105969.6640625	483714.375	
267.9840087890625	13530.099609375	1316243.625	334123.9375	102670.9140625	529675.25	
269.2019958496094	9436.5830078125	1200095.	353030.21875	140250.	477699.0625	
270.4209899902344	9821.36328125	1240407.375	367062.59375	127770.6640625	309168.53125	
271.6390075683594	9420.	1227151.75	270168.59375	88517.3359375	514817.03125	
272.8569946289063	12447.5	1196431.875	224478.078125	70063.5859375	262067.640625	
274.0750122070313	9592.400390625	1254592.	308780.0625	220471.875	207765.609375	
275.2929992675781	8546.7275390625	1192906.375	201022.171875	73032.4140625	274100.78125	
276.510986328125	12268.900390625	1165438.75	203907.328125	60407.58203125	291733.125	
277.72900390625	6115.08349609375	1309285.75	183193.765625	66760.8359375	163926.890625	
278.9469909667969	5998.25	1362258.125	211940.171875	98210.4609375	353948.0625	
280.1650085449219	9566.4541015625	1273309.	289540.4375	109569.4140625	481706.8125	
281.3829956054688	17026.400390625	1671999.5	431532.0625	132443.75	742438.8125	
282.6019897460938	21469.666015625	1950454.125	411950.90625	177313.71875	693984.375	
283.8200073242188	19968.181640625	1807071.375	751557.6875	228230.328125	680969.75	
285.0379943847656	23099.80078125	1755841.375	949932.875	266294.15625	747505.375	
286.2560119628906	19839.5	1920789.5	960223.125	255799.	939791.8125	
287.4739990234375	28709.63671875	2981665.75	955825.1875	282656.65625	999581.0625	
288.6919860839844	30314.908203125	2392364.	899891.5	389512.75	1173654.875	
289.9100036621094	35528.6015625	3105626.	1115661.5	310948.15625	1361854.25	
291.1279907226563	33940.18359375	2389335.75	1004136.1875	348489.34375	1296771.	
292.3460083007813	33122.36328125	2140298.75	1168344.875	332403.65625	1291598.	
293.5650024414063	35513.69921875	2473967.25	1188910.625	264729.	1146558.625	
294.7829895019531	35089.18359375	2305187.5	812101.375	303563.65625	1037393.6875	
296.0010070800781	37181.30078125	2668233.25	918817.5	296100.34375	1374057.	
297.218994140625	30626.2734375	2568604.5	920318.625	280605.25	1265226.375	
298.43701171875	27109.5	2351802.5	819361.375	249761.	997063.0625	
299.6549987792969	25609.455078125	2242327.75	856361.25	221946.828125	738204.75	
300.8729858398438	29368.	1926812.	601069.625	202817.921875	640890.0625	
302.0910034179688	20403.400390625	2011198.125	528564.625	164199.171875	1742288.375	
303.3089904785156	19977.544921875	1911786.125	545818.9375	195226.578125	491742.1875	
304.5270080566406	14466.36328125	1475198.5	473144.46875	132040.75	452988.375	
305.7460021972656	13618.5	1469023.125	297943.90625	144250.	268911.75	
306.9639892578125	10805.5830078125	1550838.	293397.46875	98462.9140625	419668.59375	
308.1820068359375	13856.	1421792.25	310123.8125	111538.4140625	374808.75	
309.3999938964844	11270.	1263137.25	283315.25	103219.5	316175.1875	
310.6180114746094	11198.1669921875	1446860.125	354171.59375	97919.3359375	415240.65625	
311.8359985351563	12290.36328125	1327047.125	284257.65625	115000.0859375	558620.625	
313.0539855957031	17127.19921875	1488758.5	228419.078125	111207.	297728.875	
314.2720031738281	15733.	1327001.75	277120.84375	123492.4140625	371725.5	
315.489990234375	15364.6669921875	1733770.75	352681.46875	164977.640625	241721.890625	
316.7080078125	15321.36328125	1583996.	466515.59375	131474.078125	359034.78125	
317.927001953125	19357.455078125	2051925.25	324585.9375	184774.015625	336538.15625	
319.1449890136719	18869.599609375	1719981.375	314431.625	128753.3359375	447467.25	
320.3630065917969	19138.583984375	1673326.75	322188.875	125027.0859375	556243.	
321.5809936523438	20823.5	1586295.5	369222.5	133307.5	735599.1875	
322.7990112304688	20032.63671875	1801280.125	372779.8125	152014.671875	423639.28125	
324.0169982910156	26537.599609375	1718889.375	403094.71875	154049.25	599574.9375	
325.2349853515625	23640.5	1783102.75	438057.03125	166896.5	711661.1875	
326.4530029296875	24711.900390625	1710167.25	560431.0625	182306.421875	661570.	
327.6709899902344	27123.63671875	1870227.5	625232.4375	166562.671875	790114.75	
328.8900146484375	35844.6015625	1845464.25	584832.0625	181642.25	548479.75	
330.1080017089844	25763.544921875	1814653.75	527285.4375	245645.375	700645.6875	
331.3259887695313	31828.69921875	1803347.625	461631.4375	255251.6875	807178.5625	
332.5440063476563	25288.818359375	1770337.	462376.71875	196710.875	707855.75	
333.7619934082031	40967.22265625	1415774.5	382807.21875	174991.421875	417705.375	
334.9800109863281	17727.	1531813.875	413608.34375	159040.25	589526.5	
336.197998046875	22337.181640625	1422974.25	447669.9375	162298.828125	352403.84375	
337.4159851074219	20962.900390625	1556257.375	289503.15625	133423.75	427149.65625	
338.6340026855469	18346.63671875	1532646.375	282214.90625	137152.171875	456096.125	
339.8519897460938	20204.908203125	1300734.125	305126.	101820.4140625	379022.375	
341.0710144042969	17007.63671875	1426158.125	311560.15625	104422.6640625	389813.03125	
342.2890014648438	14069.8330078125	1375214.875	217495.1875	137223.421875	596715.	
343.5069885253906	12817.	1373021.	379291.53125	154558.09375	445098.90625	
344.7250061035156	15609.25	1594777.625	323208.65625	106982.6640625	453253.90625	
345.9429931640625	16506.181640625	1411313.875	448579.59375	144838.75	489574.84375	
347.1610107421875	36278.1953125	1612621.25	364780.25	169592.671875	494071.28125	
348.3789978027344	18237.	1614846.	561945.3125	189511.921875	468009.71875	
349.5969848632813	15049.9091796875	1647342.75	543224.75	160609.078125	914253.6875	
350.8150024414063	23768.666015625	1689951.375	541418.75	178199.578125	681648.	
352.0329895019531	19770.80078125	1914268.375	487438.75	159377.75	697203.5625	
353.2520141601563	14888.6669921875	1805141.	482576.03125	171980.75	789691.625	
354.4700012207031	13259.5830078125	1519107.875	412291.25	137599.	926132.875	
355.68798828125	14881.2998046875	1502853.25	346281.125	159517.75	1008062.375	
356.906005859375	10263.0830078125	1640408.	454508.875	111004.1640625	340257.8125	
358.1239929199219	10430.4169921875	1431466.5	340060.375	211693.125	333389.0625	
359.3420104980469	15501.4443359375	1265604.375	290212.03125	95435.234375	383394.	
360.5599975585938	11882.6669921875	1153866.5	233095.609375	51857.83203125	473522.5625	
361.7780151367188	9047.181640625	1320098.875	264177.0625	72398.	375795.53125	
362.9960021972656	9156.818359375	1384741.375	181723.84375	73680.1640625	368502.3125	
364.2139892578125	12068.2998046875	1354799.	215395.921875	93577.	262021.8125	
365.4330139160156	15435.599609375	1219795.875	246253.0625	78000.75	232496.140625	
366.6510009765625	8763.6669921875	1151755.5	312404.53125	88788.9375	179529.59375	
367.8689880371094	15835.7998046875	1257133.	164961.296875	109687.6484375	326850.5625	
369.0870056152344	26222.833984375	1408990.625	182095.125	141295.359375	146257.484375	
370.3049926757813	16768.583984375	1491470.5	179693.65625	199669.78125	410874.1875	
371.5230102539063	19514.69921875	1327905.875	174274.03125	107397.6640625	620363.3125	
372.7409973144531	32183.455078125	1048643.5	126768.6171875	163288.	224309.09375	
373.9590148925781	20031.19921875	1155252.875	121378.953125	77007.75	186171.46875	
375.177001953125	27151.099609375	1233836.875	105964.8359375	117500.3671875	61495.46875	
376.39599609375	24261.30078125	1088244.125	89401.75	126102.09375	107248.6640625	
377.614013671875	18277.5	1070367.25	64278.16796875	50433.25	125240.5703125	
378.8320007324219	18247.7265625	1215374.5	59969.16796875	54539.83203125	92734.703125	
380.0499877929688	21056.833984375	993194.9375	79170.6015625	87504.6875	52208.83203125	
381.2680053710938	13855.9091796875	897191.3125	71201.3671875	44091.25	195642.671875	
382.4859924316406	17918.80078125	919909.625	49602.1015625	33066.58203125	68408.9765625	
383.7040100097656	12938.099609375	1046351.625	73232.3203125	33138.16796875	72757.5	
384.9219970703125	9862.2998046875	1348427.	129046.5546875	40327.	72877.203125	
386.1400146484375	7926.08349609375	1078583.	70518.8203125	28686.166015625	47917.36328125	
387.3580017089844	6599.33349609375	841982.9375	35809.7265625	26439.833984375	269651.84375	
388.5769958496094	5389.16650390625	830000.9375	54441.51171875	26509.083984375	56008.2734375	
389.7950134277344	27472.900390625	847461.25	38541.91015625	74740.609375	112398.84375	
391.0130004882813	9534.6669921875	815182.6875	37655.19921875	12976.75	38804.8984375	
392.2309875488281	4880.5	702781.25	30376.400390625	21044.833984375	35491.08203125	
393.4490051269531	5365.	805100.4375	17983.5625	41995.53515625	30624.	
394.6669921875	6698.9091796875	859350.375	19495.	41453.11328125	32351.544921875	
395.885009765625	6854.0908203125	786905.9375	51328.3984375	13529.	36688.	
397.1029968261719	2769.333251953125	808003.125	59767.	9595.75	53090.69921875	
398.3210144042969	4459.	867803.8125	21679.	19962.083984375	159358.640625	
399.5390014648438	4675.	768302.25	36273.	11624.5830078125	49290.	
400.7579956054688	3593.699951171875	746203.5625	31759.5	16881.30078125	31915.544921875	
401.9760131835938	3520.666748046875	764853.1875	52458.34375	65931.203125	63148.0390625	
403.1940002441406	2802.833251953125	878021.4375	58942.3125	8076.41650390625	30035.916015625	
404.4119873046875	5342.36376953125	808471.	17512.599609375	18354.	70203.2734375	
405.6300048828125	2685.666748046875	818751.125	15241.8330078125	24664.	32687.666015625	
406.8479919433594	3525.888916015625	926626.5	127900.4765625	7525.5	78951.9140625	
408.0660095214844	3593.60009765625	730800.	20634.333984375	15275.0830078125	37621.30078125	
409.2839965820313	3253.10009765625	737791.125	18587.	12952.5830078125	51232.	
410.5020141601563	2629.727294921875	745268.5	41462.9296875	21115.75	109864.6015625	
411.7210083007813	2894.333251953125	798197.375	87788.59375	32819.25	109351.171875	
412.9389953613281	2669.583251953125	737993.3125	15388.0908203125	7458.91650390625	113633.0625	
414.1570129394531	3363.39990234375	790086.5	35353.16796875	32107.203125	36523.69921875	
415.375	2320.0908203125	754138.6875	12435.4169921875	16301.400390625	145170.328125	
416.5929870605469	1582.909057617188	756404.4375	9771.5	9420.6669921875	29973.63671875	
417.8110046386719	2902.727294921875	784740.125	14753.5	8863.	35884.30078125	
419.0289916992188	2327.083251953125	807895.125	10430.5	12802.3330078125	56742.546875	
420.2470092773438	2329.363525390625	771420.875	22941.583984375	18505.333984375	32582.166015625	
421.4649963378906	1884.833374023438	746028.875	17942.416015625	12361.4169921875	34949.30078125	
422.6830139160156	2083.45458984375	834254.25	13837.4169921875	16349.5830078125	53718.453125	
423.9020080566406	2410.333251953125	730133.1875	13378.6669921875	83862.0546875	42740.6015625	
425.1199951171875	2051.833251953125	801859.	14481.400390625	34230.94921875	36556.2734375	
426.3380126953125	3539.818115234375	750798.5625	17907.2734375	26925.333984375	178556.5	
427.5559997558594	4179.16650390625	784060.6875	17979.	15132.5	58021.	
428.7739868164063	3585.45458984375	725760.	9279.9169921875	11001.5830078125	30230.666015625	
429.9920043945313	2986.	755009.3125	8646.9091796875	37441.08203125	35135.81640625	
431.2099914550781	3453.416748046875	752022.25	9323.0830078125	22071.583984375	111518.796875	
432.4280090332031	6168.25	709096.875	12017.5	13027.4169921875	30586.900390625	
433.64599609375	4975.2998046875	834402.4375	13589.5	33757.65234375	35119.5	
434.864013671875	3244.833251953125	772790.8125	35956.64453125	30756.333984375	37203.08984375	
436.0830078125	9379.0830078125	740631.	24526.22265625	18947.083984375	31969.900390625	
437.3009948730469	6892.33349609375	1416373.375	8636.9169921875	82515.3671875	23570.75	
438.5190124511719	10186.7275390625	752641.375	11044.4541015625	36020.5	53890.4453125	
439.7369995117188	6666.33349609375	710691.5625	8302.1669921875	68114.515625	66615.21875	
440.9549865722656	15827.2724609375	763992.75	43256.2109375	31048.166015625	32350.099609375	
442.1730041503906	9949.63671875	724669.75	44557.83203125	31100.25	34673.6015625	
443.3909912109375	8856.818359375	783411.3125	20416.916015625	19998.333984375	34744.5	
444.6090087890625	5990.16650390625	742383.75	26013.111328125	35741.33203125	336128.90625	
445.8269958496094	12395.111328125	684130.8125	10571.6669921875	22982.833984375	32712.	
447.0459899902344	9834.2001953125	701298.875	29449.416015625	43102.66796875	29423.400390625	
448.2640075683594	10996.	801972.875	64138.	31407.416015625	42803.69921875	
449.4819946289063	7178.60009765625	852094.625	25322.166015625	31427.5	50777.08203125	
450.7000122070313	5732.	745104.875	17540.544921875	101553.53125	41113.69921875	
451.9179992675781	7839.10009765625	785987.0625	66279.2421875	29334.5	151943.5625	
453.135986328125	5933.72705078125	831560.125	28281.	30156.416015625	20870.75	
454.35400390625	5297.66650390625	731221.3125	37638.5	26768.	92925.890625	
455.5719909667969	7128.10009765625	929811.1875	111442.71875	29013.666015625	66647.2109375	
456.7900085449219	7538.7998046875	760292.875	48659.2734375	28028.166015625	69583.203125	
458.0079956054688	6377.7998046875	800285.1875	22360.083984375	24733.666015625	60317.69921875	
459.2269897460938	9080.9169921875	762853.4375	48977.58203125	29712.333984375	26549.666015625	
460.4450073242188	10815.900390625	763358.25	19829.083984375	38518.58203125	93019.4453125	
461.6629943847656	5380.66650390625	820732.4375	96843.4375	35454.66796875	38855.	
462.8810119628906	8034.58349609375	781885.625	72020.4296875	38382.25	43711.41796875	
464.0989990234375	12672.5556640625	937616.25	101408.53125	82410.796875	186476.84375	
465.3169860839844	12731.5	816318.125	111001.1171875	40744.33203125	118154.6640625	
466.5350036621094	9872.400390625	947834.	205307.796875	42548.5	430924.96875	
467.7529907226563	5147.91650390625	864627.75	47049.58203125	36344.41796875	209193.671875	
468.9710083007813	12647.599609375	847078.75	98887.21875	32754.	142584.953125	
470.1889953613281	7991.27294921875	772138.25	32877.91796875	42667.66796875	104830.8359375	
471.4079895019531	14211.5	890541.4375	129542.640625	47094.08203125	122413.	
472.6260070800781	8538.7275390625	875265.75	43518.75	41084.41796875	99154.171875	
473.843994140625	11019.5	752716.4375	71495.	38841.16796875	72842.3203125	
475.06201171875	10263.5	789694.1875	171611.515625	48866.58203125	55222.48046875	
476.2799987792969	5669.9091796875	770295.125	35182.2734375	39586.66796875	311318.65625	
477.4979858398438	4795.39990234375	833373.0625	26336.181640625	21502.75	136816.65625	
478.7160034179688	8066.27294921875	1052192.75	65326.7265625	34229.25	77416.921875	
479.9339904785156	4705.	764302.6875	40362.41796875	34367.66796875	61406.1015625	
481.1520080566406	6540.83349609375	941950.6875	86899.78125	40569.58203125	88795.8046875	
482.3710021972656	5766.39990234375	857654.875	61568.75	19708.333984375	200004.234375	
483.5889892578125	4371.16650390625	865351.9375	67415.0859375	60904.33203125	58689.453125	
484.8070068359375	4095.0908203125	849318.875	53811.58203125	34471.25	108221.046875	
486.0249938964844	4705.08349609375	865338.6875	32607.583984375	23233.916015625	77847.	
487.2430114746094	5633.45458984375	854762.8125	87174.96875	30127.5	166647.984375	
488.4609985351563	4224.2998046875	901041.	115868.6953125	23373.75	118389.6015625	
489.6789855957031	4094.10009765625	1198736.875	41502.08203125	23077.333984375	151109.140625	
490.8970031738281	4346.25	818154.1875	50553.75	28432.75	114328.6015625	
492.114990234375	4304.60009765625	744326.4375	53389.5	35566.33203125	54576.8984375	
493.3330078125	2994.5	753833.3125	52652.16796875	23436.75	90944.546875	
494.552001953125	3528.5	847904.	19174.75	38885.25	78605.6015625	
495.7699890136719	2627.333251953125	820996.625	38855.5625	16878.75	42763.66796875	
496.9880065917969	3994.9091796875	731382.5625	22071.552734375	11611.	175112.078125	
498.2059936523438	2747.818115234375	801273.3125	21256.900390625	18663.666015625	51798.63671875	
499.4240112304688	7720.5	800601.9375	62005.046875	12084.8330078125	49565.1015625	
500.6419982910156	3175.727294921875	804027.1875	24059.091796875	10514.5830078125	120260.25	
501.8599853515625	4477.72705078125	764914.6875	31532.36328125	19148.25	42323.2734375	
503.0780029296875	4613.66650390625	731053.3125	75216.328125	18111.916015625	31820.5	
504.2959899902344	6047.	764776.875	15282.0830078125	25013.25	66825.3359375	
505.5140075683594	4313.63623046875	691449.3125	33531.66796875	10831.4169921875	30911.908203125	
506.7330017089844	4605.	684941.5625	28943.36328125	12554.9169921875	111669.9296875	
507.9509887695313	3967.54541015625	784278.25	11274.25	20512.083984375	82520.3046875	
509.1690063476563	5566.	730939.	77449.0703125	14640.0830078125	106117.46875	
510.3869934082031	3687.083251953125	866936.375	25391.25	16592.	52965.91796875	
511.6050109863281	5433.45458984375	689732.4375	28681.75	7033.58349609375	37765.1015625	
512.822998046875	5255.89990234375	711023.5625	14446.	17069.25	62153.66796875	
514.041015625	2902.60009765625	736615.1875	19155.36328125	9862.8330078125	18164.25	
515.2589721679688	4722.58349609375	680481.75	7961.08349609375	8419.6669921875	19927.416015625	
516.4769897460938	3793.89990234375	700443.1875	125562.2734375	18051.583984375	27840.63671875	
517.6959838867188	2769.083251953125	719710.6875	35559.19921875	11416.5830078125	38531.25	
518.9140014648438	1509.416625976563	720213.0625	44038.41796875	17906.083984375	43189.66796875	
520.1320190429688	2642.5	730594.25	14154.6669921875	24931.833984375	120281.4609375	
521.3499755859375	4304.89990234375	779357.75	21105.166015625	40332.	33705.546875	
522.5679931640625	2226.833251953125	758230.25	10164.3330078125	15793.818359375	46253.	
523.7860107421875	2019.909057617188	755168.875	29421.5	10247.9169921875	100850.3984375	
525.0040283203125	2622.39990234375	756997.3125	12311.9169921875	12233.3330078125	87846.078125	
526.2219848632813	2620.636474609375	779982.5	39563.609375	15193.5830078125	28995.916015625	
527.4400024414063	2720.45458984375	819017.5	124571.8046875	13707.25	70633.3515625	
528.6580200195313	2168.5	677492.875	53428.78125	7593.75	71204.6640625	
529.8770141601563	2657.0908203125	743973.25	76242.2578125	10013.25	39194.	
531.094970703125	4885.10009765625	974031.125	71167.3984375	40265.43359375	43461.33203125	
532.31298828125	3102.916748046875	720972.1875	17379.25	15151.0830078125	23514.25	
533.531005859375	3162.800048828125	678141.75	45341.5	21620.5	33856.91796875	
534.7490234375	5045.2998046875	709603.25	126984.1171875	20877.63671875	30375.091796875	
535.9669799804688	5666.10009765625	722265.3125	26264.25	16263.6669921875	157135.078125	
537.1849975585938	10816.2998046875	801528.5625	13354.3330078125	22578.083984375	25081.166015625	
538.4030151367188	4424.60009765625	792964.	13659.75	32183.75	257508.125	
539.6209716796875	14326.5556640625	688280.8125	26795.666015625	17854.	39179.30078125	
540.8389892578125	4686.72705078125	751637.3125	27001.400390625	11022.4169921875	53103.69921875	
542.0579833984375	3330.45458984375	725048.	16214.6669921875	9966.5830078125	22125.416015625	
543.2760009765625	2777.583251953125	737883.125	26419.455078125	20954.833984375	29222.5	
544.4940185546875	3136.583251953125	755872.3125	10232.8330078125	13724.3330078125	128301.859375	
545.7119750976563	1846.909057617188	710147.5625	8815.0830078125	18186.666015625	43206.80078125	
546.9299926757813	2894.25	753872.5625	12087.75	14811.4169921875	40176.81640625	
548.1480102539063	3723.699951171875	680914.6875	40066.08203125	46849.01171875	45091.63671875	
549.3660278320313	7956.66650390625	691729.125	8520.25	12706.75	122606.3671875	
550.583984375	2902.636474609375	707010.25	83596.75	16946.5	69463.	
551.802001953125	3363.199951171875	943022.75	21791.416015625	16402.818359375	56349.18359375	
553.02001953125	2460.5	724899.5625	19274.	19492.583984375	48788.69921875	
554.239013671875	2492.199951171875	762961.6875	22897.666015625	93284.625	67538.546875	
555.4569702148438	2241.89990234375	762048.875	19858.333984375	6074.08349609375	33364.75	
556.6749877929688	2510.666748046875	714205.3125	18478.583984375	10040.3330078125	61664.3984375	
557.8930053710938	2510.5	722905.25	47440.01953125	25791.583984375	214460.28125	
559.1110229492188	3495.166748046875	830767.875	32476.	84804.3828125	167638.28125	
560.3289794921875	3536.833251953125	827478.4375	83615.328125	30070.166015625	139448.359375	
561.5469970703125	5896.7998046875	811893.3125	51109.83203125	38220.	113209.8125	
562.7650146484375	4584.7998046875	713676.8125	403583.59375	19113.416015625	218069.40625	
563.9829711914063	2927.583251953125	819792.9375	77035.5859375	26827.25	32836.83203125	
565.2020263671875	3419.916748046875	849624.8125	44471.	34210.91796875	72376.1640625	
566.4199829101563	3695.333251953125	770182.375	53039.41796875	18213.333984375	90381.3125	
567.6380004882813	3967.818115234375	763703.125	79800.3984375	22210.75	80373.046875	
568.8560180664063	3383.5	740957.3125	36462.16796875	25530.	71859.453125	
570.073974609375	3964.199951171875	711094.25	48979.66796875	44930.41796875	80155.6015625	
571.2919921875	4755.2001953125	755377.3125	35766.5	18972.833984375	247465.328125	
572.510009765625	5476.39990234375	756449.1875	56800.5	15457.6669921875	78355.6484375	
573.72802734375	5961.63623046875	752386.625	74767.9140625	32274.166015625	76521.21875	
574.9459838867188	5018.25	734633.75	23914.083984375	39957.16796875	117028.890625	
576.1640014648438	2727.5	723693.3125	43077.546875	23939.083984375	55291.19921875	
577.3829956054688	2143.583251953125	834834.5625	55568.19921875	20033.416015625	76652.3359375	
578.6010131835938	2447.54541015625	698479.125	33651.5	8911.5830078125	90404.	
579.8189697265625	2593.272705078125	729896.5625	30405.666015625	18111.333984375	54856.36328125	
581.0369873046875	7832.39990234375	706470.25	46321.25	12809.9169921875	30762.	
582.2550048828125	2902.833251953125	685117.3125	76187.59375	28082.	82093.1015625	
583.4730224609375	4815.5	760940.875	135501.546875	13811.5830078125	60232.7265625	
584.6909790039063	2729.727294921875	715241.25	13585.	12109.1669921875	128196.984375	
585.9089965820313	3445.	713073.75	34464.08203125	12042.5	72657.0625	
587.1270141601563	4449.111328125	710319.5625	38472.6015625	35171.12890625	65070.	
588.344970703125	2911.727294921875	703752.4375	10250.5830078125	20692.	49817.9375	
589.5640258789063	2811.	707997.3125	44836.16796875	10205.25	51842.890625	
590.781982421875	3423.60009765625	682681.75	33460.36328125	33788.66796875	164554.	
592.	6899.4443359375	704492.	71813.2890625	8746.0830078125	56291.5	
593.218017578125	3763.800048828125	688143.125	20128.333984375	34040.453125	51007.66796875	
594.4359741210938	2929.818115234375	704378.25	32075.583984375	8903.8330078125	32004.166015625	
595.6539916992188	2192.818115234375	825794.875	267137.28125	17393.5	37912.5	
596.8720092773438	2247.54541015625	683778.25	38146.91796875	6700.5	37561.8984375	
598.0900268554688	1928.909057617188	706598.6875	49547.18359375	14357.4169921875	50953.41796875	
599.3079833984375	2547.636474609375	682160.	10800.	12779.75	43495.63671875	
600.5269775390625	2442.199951171875	723643.4375	53555.2578125	18204.75	55184.5	
601.7449951171875	2110.	708463.125	16069.3330078125	19742.916015625	50661.25	
602.9630126953125	1701.416625976563	706129.3125	13639.	23018.916015625	45822.30078125	
604.1810302734375	3980.416748046875	704520.	21805.4453125	19004.583984375	49606.69921875	
605.3989868164063	5628.5556640625	847700.125	47710.81640625	13687.8330078125	53645.546875	
606.6170043945313	4212.66650390625	888096.875	26423.69921875	30330.083984375	75436.296875	
607.8350219726563	9588.599609375	830519.125	51669.69921875	19968.583984375	96418.75	
609.052978515625	7439.	695215.4375	44809.91015625	20193.083984375	44164.546875	
610.27099609375	8320.	706286.25	34034.83203125	25701.416015625	66801.453125	
611.489013671875	14051.888671875	701604.875	21112.111328125	12008.3330078125	80992.890625	
612.7080078125	6206.9091796875	721236.4375	14574.599609375	13711.3330078125	42568.	
613.926025390625	17332.19921875	725244.5	41738.08984375	26090.333984375	39015.	
615.1439819335938	7284.16650390625	646668.375	23569.416015625	28224.240234375	68706.9453125	
616.3619995117188	4212.66650390625	704984.6875	35272.1015625	13055.0830078125	27524.833984375	
617.5800170898438	4329.5	717257.75	11606.0830078125	10889.0830078125	31040.181640625	
618.7979736328125	6234.54541015625	695149.3125	4896.91650390625	10947.9169921875	50485.81640625	
620.0159912109375	3670.5	702913.3125	19861.583984375	15970.	104628.296875	
621.2340087890625	3876.54541015625	714209.75	22322.80078125	123108.9140625	32711.5	
622.4520263671875	4394.60009765625	687525.75	18101.833984375	14874.0830078125	31779.900390625	
623.6699829101563	4513.72705078125	683722.1875	23953.25	12567.4169921875	37983.3984375	
624.8889770507813	4294.39990234375	772570.0625	24656.908203125	17821.833984375	35282.	
626.1069946289063	5936.60009765625	737161.75	9748.	22422.166015625	66092.5625	
627.3250122070313	5314.818359375	683747.125	15142.	13827.9169921875	65759.	
628.5430297851563	7649.39990234375	681009.75	9433.	18704.25	38750.8984375	
629.760986328125	8360.2001953125	691917.875	21391.583984375	19025.583984375	72989.3515625	
630.97900390625	5169.27294921875	692964.5	67081.3359375	9887.8330078125	41514.6015625	
632.197021484375	4295.181640625	728998.0625	36259.921875	9954.0830078125	27366.416015625	
633.4149780273438	4895.2998046875	708394.5625	6927.41650390625	10914.25	213603.8125	
634.6329956054688	3512.54541015625	754285.4375	9382.0830078125	9912.4169921875	49464.19921875	
635.8519897460938	2844.416748046875	712645.75	5105.66650390625	8693.8330078125	51189.06640625	
637.0700073242188	2810.833251953125	690697.75	85822.890625	8210.3330078125	41225.75	
638.2880249023438	2702.45458984375	807681.3125	12603.9169921875	18268.666015625	52536.7265625	
639.5059814453125	2201.727294921875	715640.875	7776.58349609375	17331.083984375	36590.3984375	
640.7239990234375	3413.39990234375	701785.125	14772.	16512.083984375	72635.9296875	
641.9420166015625	2329.363525390625	671474.25	24170.666015625	7893.08349609375	36445.453125	
643.1599731445313	6579.89990234375	718337.625	7968.66650390625	27921.908203125	58449.5	
644.3779907226563	2356.54541015625	699289.375	9096.8330078125	12050.5	103839.3046875	
645.5960083007813	3763.800048828125	707942.6875	48154.08984375	20037.	27182.833984375	
646.8140258789063	3112.181884765625	696635.5625	86113.984375	13103.6669921875	59808.1015625	
648.0330200195313	5446.39990234375	663932.	7317.66650390625	20583.333984375	42408.91015625	
649.2509765625	4634.89990234375	701330.6875	15280.0830078125	14638.5	60622.16796875	
650.468994140625	5214.72705078125	710171.5625	14062.0830078125	19367.	40741.19921875	
651.68701171875	5406.0908203125	1200138.	11796.5830078125	20303.583984375	40964.109375	
652.905029296875	5716.7001953125	791854.4375	29787.916015625	41145.67578125	37312.1015625	
654.1229858398438	4805.33349609375	686121.3125	50491.45703125	14682.8330078125	132856.265625	
655.3410034179688	3044.416748046875	723348.25	11409.7275390625	26830.833984375	40539.19921875	
656.5590209960938	8434.900390625	708137.3125	25104.25	11960.3330078125	50738.453125	
657.7769775390625	2660.583251953125	723175.4375	19253.083984375	11050.3330078125	33013.5	
658.9949951171875	6378.2998046875	696171.6875	19496.166015625	21038.916015625	52623.66796875	
660.2139892578125	4860.181640625	711524.4375	9563.1669921875	12176.4169921875	50378.18359375	
661.4320068359375	5142.0908203125	696007.5625	14480.9091796875	14758.5830078125	61973.33203125	
662.6500244140625	5287.63623046875	810529.625	16906.25	12704.	30586.80078125	
663.8679809570313	10071.111328125	719509.9375	10569.181640625	14881.6669921875	190905.625	
665.0859985351563	3520.25	730034.25	4104.83349609375	13387.4169921875	37458.63671875	
666.3040161132813	3740.181884765625	715647.5625	8556.6669921875	10931.5830078125	27290.916015625	
667.52197265625	4872.25	712945.3125	3637.	18238.666015625	30215.	
668.739990234375	2969.583251953125	904123.8125	21792.	23143.25	30075.19921875	
669.9580078125	2942.699951171875	662673.75	5497.91650390625	7901.08349609375	72146.4453125	
671.177001953125	3413.300048828125	692378.6875	4980.66650390625	50227.625	29273.099609375	
672.39501953125	2684.181884765625	680842.25	20680.916015625	9380.25	27412.908203125	
673.6129760742188	2268.916748046875	730751.125	7612.33349609375	8492.2724609375	117720.21875	
674.8309936523438	2338.363525390625	697824.6875	7799.	6966.75	70646.4296875	
676.0490112304688	2927.75	697408.4375	3253.25	5572.75	27138.63671875	
677.2670288085938	1655.727294921875	697816.	10417.0830078125	24366.416015625	21560.75	
678.4849853515625	2502.199951171875	712984.875	5239.41650390625	6742.08349609375	34200.546875	
679.7030029296875	2594.333251953125	685602.6875	42512.84375	18256.5	30539.333984375	
680.9210205078125	1851.416625976563	758075.	11368.5458984375	6190.33349609375	78031.0390625	
682.1389770507813	2872.800048828125	699127.5625	27563.099609375	5940.58349609375	41320.453125	
683.3579711914063	1667.916625976563	703921.75	7986.41650390625	9104.25	28120.19921875	
684.5759887695313	1125.666625976563	687259.9375	9440.0830078125	6958.41650390625	30605.908203125	
685.7940063476563	2412.	687462.25	21570.5	5506.33349609375	110686.359375	
687.0120239257813	4093.888916015625	710670.6875	6418.2998046875	5606.41650390625	34476.	
688.22998046875	3834.10009765625	671237.3125	3549.	18902.333984375	86280.5859375	
689.447998046875	2176.75	673637.3125	6259.41650390625	20969.63671875	82826.21875	
690.666015625	3072.89990234375	686056.	7832.89990234375	7868.58349609375	73266.4765625	
691.8839721679688	2211.89990234375	674026.375	2602.5	14254.0830078125	32123.69921875	
693.1019897460938	3403.4443359375	699137.75	3954.333251953125	16150.8330078125	46531.81640625	
694.3200073242188	1526.	672629.3125	53875.01171875	8603.6669921875	107129.59375	
695.5390014648438	2825.22216796875	684902.6875	9718.0830078125	16049.1669921875	129841.125	
696.7570190429688	992.4166870117188	637791.5	4914.08349609375	12844.0830078125	32784.63671875	
697.9749755859375	1342.5	660599.5625	5039.58349609375	7551.08349609375	29865.666015625	
699.1929931640625	3840.54541015625	662504.875	172045.15625	9715.5830078125	100367.5625	
700.4110107421875	2147.0908203125	649754.25	7328.36376953125	6157.25	38532.5	
701.6290283203125	3570.75	705637.75	6059.33349609375	13775.	59400.11328125	
702.8469848632813	1893.166625976563	710631.25	36447.75	6540.91650390625	76821.921875	
704.0650024414063	1961.599975585938	728492.	5130.75	19298.416015625	31112.63671875	
705.2830200195313	2061.699951171875	683728.375	23938.75	8870.75	35578.18359375	
706.5020141601563	2051.699951171875	723256.875	2977.833251953125	9721.5	33004.19921875	
707.719970703125	2647.818115234375	732971.125	20200.833984375	8821.75	18833.75	
708.93798828125	2652.5	701860.1875	5323.16650390625	10408.8330078125	36036.6015625	
710.156005859375	3813.89990234375	676741.75	8230.181640625	11694.3330078125	36216.80078125	
711.3740234375	2384.	694117.3125	29172.908203125	4488.	225110.78125	
712.5919799804688	1974.272705078125	703163.125	8636.0830078125	11140.0830078125	36776.41796875	
713.8099975585938	3873.89990234375	723783.5625	21729.166015625	8378.5830078125	32217.36328125	
715.0280151367188	2472.300048828125	751943.4375	253651.515625	17969.5	33463.16796875	
716.2459716796875	3271.25	727520.	7343.08349609375	5239.08349609375	30335.599609375	
717.4639892578125	2969.583251953125	703799.5625	14354.3330078125	7793.	28019.099609375	
718.6829833984375	3243.300048828125	679441.3125	3840.181884765625	7275.33349609375	28527.416015625	
719.9010009765625	2335.833251953125	715453.75	14444.111328125	17796.166015625	35520.2734375	
721.1190185546875	3871.	714438.6875	10058.22265625	7726.	29727.2734375	
722.3369750976563	1728.54541015625	723139.5625	7465.9091796875	7016.5	88027.59375	
723.5549926757813	4775.66650390625	743103.125	50245.59375	4863.66650390625	23515.873046875	
724.7730102539063	2147.272705078125	683440.875	15749.75	4304.41650390625	39747.41796875	
725.9910278320313	1841.400024414063	718301.	5652.	5447.41650390625	61839.7421875	
727.208984375	1351.	701906.6875	31810.	6784.33349609375	29121.083984375	
728.427001953125	2922.800048828125	751316.875	8158.0908203125	11972.400390625	29509.666015625	
729.64501953125	1175.833374023438	672642.6875	8574.0830078125	13769.4541015625	72327.4140625	
730.864013671875	1008.916687011719	675325.3125	34149.76953125	9146.25	25790.455078125	
732.0819702148438	2101.89990234375	713602.25	4555.58349609375	12797.1669921875	28343.2734375	
733.2999877929688	1968.333374023438	668133.3125	25144.	12118.75	27368.5	
734.5180053710938	1928.636352539063	662495.5625	2994.666748046875	5347.58349609375	32996.80078125	
735.7360229492188	1961.599975585938	700996.	36951.62109375	50781.7265625	28671.19921875	
736.9539794921875	1451.083374023438	770071.4375	2694.333251953125	6811.83349609375	26930.75	
738.1719970703125	1901.599975585938	657616.875	20944.833984375	6116.08349609375	27308.099609375	
739.3900146484375	1592.833374023438	758118.1875	3336.916748046875	13491.1669921875	30452.083984375	
740.6079711914063	1709.666625976563	671851.5625	4965.5	8945.3330078125	25160.	
741.8270263671875	2542.199951171875	700494.25	5965.83349609375	46383.421875	48921.30078125	
743.0449829101563	3985.9091796875	735289.25	5791.91650390625	15090.4169921875	49982.2734375	
744.2630004882813	3853.699951171875	684847.5625	48125.08203125	16972.833984375	17252.916015625	
745.4810180664063	3202.916748046875	682146.25	16187.	12167.8330078125	29909.2734375	
746.698974609375	3867.45458984375	672312.5625	13124.900390625	18261.333984375	27568.63671875	
747.9169921875	6797.33349609375	668520.6875	6636.72705078125	17352.5	34290.69921875	
749.135009765625	5539.5556640625	696139.125	3161.583251953125	14673.75	25963.2734375	
750.35302734375	3663.60009765625	760369.25	10561.0908203125	7834.25	46524.8984375	
751.5709838867188	3061.166748046875	688383.5625	31043.77734375	8853.1669921875	58407.80078125	
752.7890014648438	4698.16650390625	669790.25	3019.75	13846.9169921875	120586.1796875	
754.0079956054688	2575.272705078125	673235.5625	20838.794921875	11989.9169921875	37042.4453125	
755.2260131835938	2538.54541015625	672474.6875	11634.75	14921.5830078125	47484.6171875	
756.4439697265625	2812.60009765625	685243.5625	3653.666748046875	5132.9091796875	38979.33203125	
757.6619873046875	2310.5	710998.6875	1351.416625976563	7802.25	70003.5625	
758.8800048828125	2019.727294921875	678611.5625	12142.5	16477.75	18043.25	
760.0980224609375	3325.5556640625	680540.4375	19124.583984375	4880.91650390625	38410.77734375	
761.3159790039063	2256.45458984375	667966.6875	14145.8330078125	15273.4169921875	27741.818359375	
762.5339965820313	1938.	685846.25	11965.0908203125	8461.9169921875	28745.916015625	
763.7520141601563	2347.363525390625	764782.375	4121.91650390625	5581.75	27909.099609375	
764.969970703125	3817.	749792.3125	4897.16650390625	6500.75	106500.3828125	
766.1890258789063	1317.583374023438	686175.5625	6642.75	6959.58349609375	27779.599609375	
767.406982421875	1471.	656569.75	8162.5	3520.166748046875	27907.181640625	
768.625	1684.666625976563	674830.25	82034.171875	9688.25	29192.7265625	
769.843017578125	1559.583374023438	680867.5625	16971.091796875	12939.75	32970.16796875	
771.0609741210938	1928.818237304688	696152.	20668.25	6349.58349609375	59376.5	
772.2789916992188	1592.833374023438	677715.125	13869.5	13977.5830078125	28701.69921875	
773.4970092773438	1626.25	784026.3125	17156.25	13364.1669921875	27331.455078125	
774.7150268554688	842.	779101.75	6409.16650390625	35900.25	29324.	
775.9329833984375	2171.699951171875	717506.875	46437.83984375	6583.	48109.18359375	
777.1510009765625	1167.416625976563	698534.25	22815.2734375	9153.6669921875	28931.599609375	
778.3699951171875	1965.181762695313	732698.0625	6199.	9981.25	28080.099609375	
779.5880126953125	1901.45458984375	881462.25	5114.33349609375	8728.3330078125	26926.80078125	
780.8060302734375	1484.333374023438	703069.25	238540.25	7384.41650390625	36331.91015625	
782.0239868164063	2719.166748046875	747142.25	8270.2998046875	18605.25	77282.9375	
783.2420043945313	21630.099609375	670834.9375	5973.5	20830.25	22148.083984375	
784.4600219726563	4513.72705078125	679896.4375	12124.5	34557.84375	46928.66796875	
785.677978515625	6207.39990234375	740832.	10353.36328125	10414.8330078125	34742.75	
786.89599609375	6227.2001953125	725493.3125	116602.65625	16665.7265625	40427.7265625	
788.114013671875	5946.60009765625	690874.25	27426.5	12443.8330078125	25926.544921875	
789.3330078125	4004.083251953125	703161.75	7098.5556640625	8753.25	27408.400390625	
790.551025390625	4638.33349609375	778071.375	168613.65625	11267.6669921875	31744.	
791.7689819335938	3913.89990234375	765911.9375	16591.75	9564.9169921875	40388.33203125	
792.9869995117188	2939.181884765625	701043.5625	12764.8330078125	16915.	42246.5	
794.2050170898438	3837.22216796875	667370.6875	18009.2734375	12765.25	80809.4765625	
795.4229736328125	2802.5	714388.	17444.583984375	7551.25	42054.16796875	
796.6409912109375	1275.916625976563	686586.6875	15737.75	5497.91650390625	24350.75	
797.8590087890625	1434.333374023438	752978.6875	26585.916015625	17572.833984375	32937.16796875	
799.0770263671875	5433.72705078125	650653.75	44061.19921875	62474.61328125	52528.5	
800.2949829101563	1765.090942382813	668521.75	27975.052734375	18143.	47158.59375	
801.5139770507813	2843.199951171875	698745.75	10932.5	19392.333984375	33068.08984375	
802.7319946289063	1851.5	659249.	106217.6484375	6348.91650390625	36451.69921875	
803.9500122070313	2872.699951171875	732234.25	18779.916015625	5381.33349609375	74239.3359375	
805.1680297851563	1759.833374023438	662153.3125	62064.73046875	16207.3330078125	38826.25	
806.385986328125	2101.75	755848.0625	70981.390625	9688.5830078125	29238.091796875	
807.60400390625	3367.0908203125	721373.25	13788.5830078125	14353.4169921875	49824.19921875	
808.822021484375	3858.9091796875	706994.125	14566.4169921875	23658.	111626.671875	
810.0399780273438	2068.5	734829.3125	14265.0830078125	11774.1669921875	38817.	
811.2579956054688	2975.54541015625	719858.25	18158.009765625	42805.16796875	227639.09375	
812.4760131835938	3453.60009765625	766457.9375	32051.5	23862.583984375	75395.5859375	
813.6950073242188	2160.166748046875	741543.	21931.916015625	14355.9169921875	120898.8984375	
814.9130249023438	3428.333251953125	756524.875	20439.166015625	17163.75	46410.81640625	
816.1309814453125	3123.10009765625	687889.75	22045.666015625	28083.083984375	93226.140625	
817.3489990234375	2892.60009765625	777040.1875	45969.75	12918.25	48811.25	
818.5670166015625	1918.25	741366.4375	17793.908203125	14648.8330078125	332284.71875	
819.7849731445313	3573.800048828125	734910.25	7695.5	17027.166015625	46209.1015625	
821.0029907226563	2643.916748046875	720689.75	25695.36328125	7500.27294921875	47152.	
822.2210083007813	1671.300048828125	662238.3125	14509.4169921875	7308.58349609375	46090.33203125	
823.4390258789063	1883.45458984375	693196.4375	14611.75	6908.58349609375	79117.6640625	
824.6580200195313	1711.300048828125	663621.75	44397.20703125	4755.08349609375	48471.8984375	
825.8759765625	1741.400024414063	730196.9375	13270.1669921875	7603.58349609375	77924.1640625	
827.093994140625	1109.727294921875	665039.5625	14969.	14439.5	41441.546875	
828.31201171875	1082.54541015625	726091.625	7743.25	8603.5	24601.416015625	
829.530029296875	1033.833374023438	664541.3125	8923.099609375	9531.5830078125	28892.	
830.7479858398438	1576.	723458.0625	7661.08349609375	5205.58349609375	52186.36328125	
831.9660034179688	1517.75	695426.5	7755.	4045.666748046875	24446.166015625	
833.1840209960938	2021.599975585938	685838.6875	7029.66650390625	5273.5	28140.400390625	
834.4019775390625	1451.416625976563	664742.6875	22458.583984375	9180.0830078125	52723.1015625	
835.6199951171875	1364.727294921875	675680.5625	8746.25	4896.0908203125	30712.2734375	
836.8389892578125	1651.166625976563	638527.5625	12365.0830078125	4805.41650390625	57353.41015625	
838.0570068359375	1851.5	651898.25	6742.33349609375	5656.58349609375	29582.333984375	
839.2750244140625	2056.181884765625	682706.4375	7876.91650390625	5932.5	26154.63671875	
840.4929809570313	3403.818115234375	660826.25	20298.666015625	5439.41650390625	27749.400390625	
841.7109985351563	1592.833374023438	652524.	14362.9169921875	9076.2724609375	29894.69921875	
842.9290161132813	2012.666625976563	663016.4375	13651.5	4989.16650390625	172972.28125	
844.14697265625	1631.400024414063	665574.6875	3203.25	5373.	29363.5	
845.364990234375	1417.75	649692.875	3762.833251953125	7142.58349609375	33115.81640625	
846.5830078125	1935.	675060.	16825.	9840.25	30397.900390625	
847.801025390625	3173.300048828125	743321.4375	11677.5556640625	7852.83349609375	30456.400390625	
849.02001953125	1455.54541015625	645243.5625	3070.	6273.91650390625	43612.8984375	
850.2379760742188	1971.599975585938	680886.6875	2135.25	6583.75	37286.6015625	
851.4559936523438	3258.666748046875	638660.4375	5501.58349609375	3962.333251953125	28762.400390625	
852.6740112304688	1526.166625976563	661963.125	8772.400390625	4145.91650390625	57936.08984375	
853.8920288085938	783.6666870117188	674245.3125	84637.375	4079.166748046875	16459.166015625	
855.1099853515625	5872.58349609375	675199.125	4630.16650390625	3486.75	29738.36328125	
856.3280029296875	1100.727294921875	667525.75	12398.5458984375	5790.25	28672.599609375	
857.5460205078125	1326.	656198.25	13471.5	10708.5	85904.9609375	
858.7639770507813	1246.363647460938	689029.3125	2026.75	3945.916748046875	33534.63671875	
859.9829711914063	1501.	634717.3125	10095.6669921875	4355.	42667.1015625	
861.2009887695313	990.7000122070313	677173.9375	2869.333251953125	5039.25	27518.69921875	
862.4190063476563	980.5	669440.	2174.727294921875	3539.9091796875	37483.77734375	
863.6370239257813	1517.75	669567.5625	2135.416748046875	2786.	33750.8984375	
864.85498046875	1464.636352539063	653752.	1884.916625976563	3920.666748046875	26780.333984375	
866.072998046875	691.8333129882813	652142.25	1100.75	2660.75	28744.	
867.291015625	1067.5	650261.75	2502.583251953125	2126.75	69591.703125	
868.5089721679688	892.3333129882813	684058.25	9234.5556640625	3245.833251953125	31483.19921875	
869.7269897460938	1082.45458984375	649960.	908.8333129882813	1642.916625976563	26666.599609375	
870.9450073242188	608.5833129882813	662751.5625	975.5833129882813	2869.333251953125	27628.5	
872.1640014648438	827.6363525390625	654306.25	3312.083251953125	2585.666748046875	23715.5	
873.3820190429688	1451.	656087.5625	4121.91650390625	3553.75	28752.19921875	
874.5999755859375	1010.5	668296.4375	3988.666748046875	4229.91650390625	67859.0625	
875.8179931640625	1040.5	684101.75	6410.66650390625	3219.75	23966.333984375	
877.0360107421875	2769.666748046875	684244.4375	1259.083374023438	3052.916748046875	28621.5	
878.2540283203125	1591.099975585938	662486.6875	6909.111328125	2260.083251953125	30731.544921875	
879.4719848632813	6243.888671875	673638.25	5610.10009765625	2886.083251953125	28691.30078125	
880.6900024414063	1275.916625976563	695710.25	1828.727294921875	13726.63671875	27869.19921875	
881.9080200195313	1446.272705078125	662472.	4327.888671875	1976.666625976563	27568.5	
883.1259765625	1217.5	675034.25	5687.77783203125	5242.25	25360.416015625	
884.344970703125	491.75	673428.	1191.727294921875	2010.	55189.7265625	
885.56298828125	1634.75	658735.125	4399.08349609375	2101.833251953125	34239.1015625	
886.781005859375	3961.333251953125	651402.6875	1075.666625976563	13697.0830078125	26767.	
887.9990234375	1256.333374023438	634946.6875	6421.7001953125	7625.45458984375	27648.900390625	
889.2169799804688	970.5	650909.75	5525.83349609375	2285.416748046875	27870.099609375	
890.4349975585938	1046.	648414.6875	1510.181762695313	7231.9091796875	28110.5	
891.6530151367188	433.4166564941406	663881.75	1125.666625976563	2093.333251953125	34632.4453125	
892.8709716796875	1601.300048828125	658732.	1342.666625976563	4830.5	27668.69921875	
894.0889892578125	1317.666625976563	698026.25	13447.63671875	2635.75	27919.900390625	
895.3079833984375	3880.416748046875	662080.4375	4632.	5248.91650390625	29254.80078125	
896.5260009765625	4332.58349609375	688850.875	3663.166748046875	3955.333251953125	27438.30078125	
897.7440185546875	1246.272705078125	643682.6875	5733.25	3111.333251953125	36805.30078125	
898.9619750976563	1992.45458984375	642486.25	10084.1669921875	2835.916748046875	58879.33203125	
900.1799926757813	942.25	649851.125	8207.3330078125	4522.08349609375	44213.4453125	
901.3980102539063	2324.333251953125	645880.875	1367.833374023438	1934.833374023438	32963.36328125	
902.6160278320313	1874.272705078125	636812.	1591.300048828125	11685.4169921875	20155.666015625	
903.833984375	1058.833374023438	623543.125	8367.4169921875	5767.58349609375	31896.908203125	
905.052001953125	1355.45458984375	639301.75	2111.083251953125	4656.41650390625	28119.599609375	
906.27001953125	1270.800048828125	647755.5625	307860.375	3312.25	27157.599609375	
907.489013671875	1055.181762695313	664088.875	9101.0908203125	1668.	28822.19921875	
908.7069702148438	1845.888916015625	648035.5625	1426.166625976563	1959.833374023438	25343.455078125	
909.9249877929688	970.4000244140625	634713.75	4885.33349609375	1517.666625976563	30529.69921875	
911.1430053710938	1260.900024414063	627528.	475.0833435058594	1718.	27729.599609375	
912.3610229492188	946.	655581.3125	3935.199951171875	1818.	49626.31640625	
913.5789794921875	690.2999877929688	663833.3125	7556.181640625	1626.25	29003.19921875	
914.7969970703125	1146.090942382813	673957.3125	1442.833374023438	1484.416625976563	33167.91015625	
916.0150146484375	383.5	636009.3125	1718.75	1484.416625976563	33979.	
917.2329711914063	782.1818237304688	648965.75	618.272705078125	1701.25	26897.30078125	
918.4509887695313	936.9091186523438	645660.	2535.916748046875	2477.166748046875	26606.30078125	
919.6699829101563	825.3333129882813	636782.25	1301.	1993.25	33278.91015625	
920.8880004882813	2645.416748046875	646185.75	900.5	1567.75	27086.80078125	
922.1060180664063	1541.199951171875	638745.3125	1251.333374023438	1551.083374023438	24700.416015625	
923.323974609375	658.5	638874.6875	1555.727294921875	1759.833374023438	26013.333984375	
924.5419921875	1055.181762695313	640607.125	1692.45458984375	1325.75	26887.	
925.760009765625	727.6363525390625	635119.5625	1180.800048828125	1484.25	26887.400390625	
926.97802734375	864.	629533.75	475.1666564941406	1634.5	25804.30078125	
928.1959838867188	967.111083984375	651324.	541.8333129882813	2335.416748046875	26135.099609375	
929.4140014648438	682.	633159.125	536.5454711914063	1692.916625976563	31644.	
930.6329956054688	716.75	636140.	391.6666564941406	1284.083374023438	26545.900390625	
931.8510131835938	910.4000244140625	628990.6875	845.8181762695313	1075.583374023438	29224.5	
933.0689697265625	782.0908813476563	627672.	583.4166870117188	1334.25	28501.	
934.2869873046875	950.5	634228.4375	383.4166564941406	1718.083374023438	25553.818359375	
935.5050048828125	836.727294921875	656655.125	4769.10009765625	1576.25	27899.599609375	
936.7230224609375	636.6363525390625	640098.6875	583.8333129882813	1342.5	28030.599609375	
937.9409790039063	709.3636474609375	639019.125	600.1818237304688	1334.166625976563	26146.181640625	
939.1589965820313	650.3333129882813	646084.4375	400.0833435058594	1250.833374023438	26506.	
940.3770141601563	990.5999755859375	633638.25	350.	1242.583374023438	26355.599609375	
941.594970703125	692.	669176.125	491.9166564941406	5977.08349609375	25884.5	
942.8140258789063	920.5999755859375	633887.125	383.3333435058594	1325.75	44296.	
944.031982421875	800.4000244140625	635536.4375	383.4166564941406	1384.166625976563	27478.599609375	
945.25	675.1666870117188	641652.	1009.166687011719	2218.666748046875	26576.400390625	
946.468017578125	882.272705078125	653503.125	767.25	5677.33349609375	27709.19921875	
947.6859741210938	873.1818237304688	635340.4375	491.9166564941406	1384.333374023438	26706.5	
948.9039916992188	566.75	689840.	582.	1125.916625976563	25033.908203125	
950.1220092773438	909.727294921875	660550.6875	3154.333251953125	1417.666625976563	33146.5546875	
951.3400268554688	780.2999877929688	649884.875	24728.599609375	1484.333374023438	25824.30078125	
952.5579833984375	636.6363525390625	632179.5625	3330.916748046875	1317.583374023438	26947.30078125	
953.7760009765625	763.9091186523438	636368.4375	1351.416625976563	1317.5	26596.30078125	
954.9949951171875	333.3333435058594	648855.5625	2112.10009765625	1592.833374023438	27467.900390625	
956.2130126953125	964.1818237304688	620637.3125	391.	1609.416625976563	27218.	
957.4310302734375	580.0999755859375	621568.4375	21857.333984375	1576.25	33967.85546875	
958.6489868164063	792.0833129882813	632703.5625	491.75	1276.	24617.583984375	
959.8670043945313	833.5833129882813	630742.25	518.272705078125	1242.416625976563	24970.	
961.0850219726563	441.75	640606.25	1626.666625976563	1367.666625976563	26185.80078125	
962.302978515625	808.6666870117188	631485.75	460.1000061035156	1384.333374023438	29264.	
963.52099609375	790.2000122070313	637698.6875	1059.	1501.083374023438	26115.099609375	
964.739013671875	1070.599975585938	609119.5625	834.	1868.166625976563	26586.099609375	
965.9580078125	391.6666564941406	622071.5625	767.25	1117.25	25403.400390625	
967.176025390625	970.7000122070313	615039.125	408.4166564941406	1200.916625976563	23313.916015625	
968.3939819335938	744.7777709960938	598831.125	233.3333282470703	1167.5	24249.818359375	
969.6119995117188	654.8181762695313	605284.	290.9090881347656	2460.666748046875	26315.5	
970.8300170898438	880.4000244140625	614564.4375	2035.916625976563	1425.916625976563	25353.	
972.0479736328125	740.2000122070313	636107.375	308.3333435058594	1167.416625976563	26205.599609375	
973.2659912109375	767.	608012.	558.8333129882813	1050.583374023438	26626.69921875	
974.4840087890625	873.1818237304688	601194.25	233.3333282470703	1217.416625976563	27017.30078125	
