Trace for Mass:	Na23(LR)	Mg25(LR)	Cu63(LR)	Pb208(LR)	Sn118(LR)
Resolution:	Low	Low	Low	Low	Low
					
Time	Intensity	Intensity	Intensity	Intensity	Intensity
[sec]	[cps]	[cps]	[cps]	[cps]	[cps]

1.25	779232.	1726.25	13066.9169921875	1092.166625976563	358.3333435058594	
2.497999906539917	779472.	2076.75	12507.75	1359.333374023438	475.1666564941406	
3.746000051498413	924264.9375	1776.25	12215.5	1259.166625976563	533.3333129882813	
4.99399995803833	792076.	1726.5	12390.8330078125	1284.166625976563	508.4166564941406	
6.242000102996826	769620.	1826.5	12324.0830078125	1367.583374023438	433.3333435058594	
7.489999771118164	877136.	6507.25	14494.5	2485.416748046875	391.75	
8.73799991607666	1056887.5	14771.	22234.75	1401.	416.6666564941406	
9.986000061035156	1077414.125	10412.75	19629.	1709.666625976563	425.	
11.23400020599365	1128020.	14519.5	20631.25	2360.75	400.	
12.48299980163574	1179194.5	8935.5	22110.75	1601.25	575.0833129882813	
13.73099994659424	1353811.5	9712.	21817.5	1659.583374023438	608.5833129882813	
14.97900009155273	1364106.	49214.75	23621.083984375	2060.	708.6666870117188	
16.22699928283691	1495888.	11515.25	28527.166015625	2101.75	583.4166870117188	
17.47500038146973	1369401.125	32605.25	26069.416015625	1918.25	458.3333435058594	
18.72299957275391	1386473.125	13242.25	30707.916015625	2368.75	491.6666564941406	
19.97100067138672	1625437.5	23764.	33138.41796875	2277.	275.	
21.2189998626709	1336869.	25919.75	42148.7109375	3771.083251953125	500.1666564941406	
22.46699905395508	1189336.	20856.5	32780.66796875	1526.083374023438	733.5	
23.71500015258789	1219056.25	68316.	24883.166015625	3904.333251953125	591.75	
24.96299934387207	1568924.375	146657.15625	26439.75	1676.25	525.0833129882813	
26.21199989318848	1193311.75	15447.	26873.333984375	1651.25	575.1666870117188	
27.45999908447266	1033540.	28561.75	22907.25	1984.916625976563	433.3333435058594	
28.70800018310547	1118148.	12140.75	36105.5	2009.916625976563	575.0833129882813	
29.95599937438965	1120016.	613380.25	27589.916015625	1751.416625976563	541.8333129882813	
31.20400047302246	1130902.375	14369.25	22384.75	1901.583374023438	616.8333129882813	
32.45199966430664	1252426.5	62336.03125	22577.	4205.16650390625	733.5833129882813	
33.70000076293945	1134308.	30719.	23855.	2126.666748046875	658.6666870117188	
34.94800186157227	1285885.125	31357.5	24457.583984375	2285.25	691.75	
36.19599914550781	5327338.5	17324.5	22411.083984375	3845.75	566.6666870117188	
37.44400024414063	1111240.	13668.	21199.25	2552.25	716.9166870117188	
38.69200134277344	1012093.1875	16874.5	39642.140625	2218.416748046875	508.3333435058594	
39.94100189208984	4260387.	12341.	23230.	1701.416625976563	733.6666870117188	
41.18899917602539	1144039.25	13393.	21929.083984375	2944.5	516.75	
42.4370002746582	1006632.	12090.25	18852.666015625	1534.333374023438	416.75	
43.68500137329102	1374059.25	13818.5	24806.166015625	1943.083374023438	608.6666870117188	
44.93299865722656	1144424.	16898.5	18385.5	1751.333374023438	500.0833435058594	
46.18099975585938	1023608.	16899.	20566.166015625	2969.5	1200.916625976563	
47.42900085449219	1166231.75	19982.5	18285.333984375	2393.583251953125	458.3333435058594	
48.67699813842773	1134645.25	20409.75	34099.41796875	3203.333251953125	458.3333435058594	
49.92499923706055	1703748.75	48883.5	46217.06640625	2193.333251953125	525.0833129882813	
51.17300033569336	1125433.	13267.25	22226.75	1776.416625976563	558.3333129882813	
52.42100143432617	1058892.	14845.5	34194.5	79832.3515625	641.8333129882813	
53.66999816894531	1638363.25	14769.5	27016.166015625	3119.666748046875	500.	
54.91799926757813	1066290.375	20656.	19111.583984375	2143.333251953125	608.5	
56.16600036621094	2050336.25	19006.25	20147.	2635.666748046875	466.6666564941406	
57.41400146484375	1000484.375	17425.75	22427.166015625	4280.25	500.0833435058594	
58.6619987487793	991488.	66159.328125	26572.583984375	3754.083251953125	550.0833129882813	
59.90999984741211	2208575.75	17424.75	25238.083984375	2093.5	658.5833129882813	
61.15800094604492	1354495.	17225.75	32773.25	2927.75	450.	
62.40599822998047	2207683.	10713.	22186.333984375	3870.75	875.4166870117188	
63.65399932861328	984768.	23391.75	19812.75	2410.333251953125	658.5	
64.90200042724609	1100934.75	27021.5	30558.833984375	6667.25	650.3333129882813	
66.15000152587891	1029188.	25816.75	22812.916015625	6074.41650390625	566.8333129882813	
67.39900207519531	1265017.75	27120.25	26683.5	3712.083251953125	450.	
68.64700317382813	1076040.	32636.75	19671.	2944.333251953125	591.75	
69.89499664306641	1309988.625	39310.5	18109.833984375	3870.666748046875	400.	
71.14299774169922	1252062.875	26544.25	19988.666015625	2277.	491.8333435058594	
72.39099884033203	1150705.125	22159.25	26224.583984375	1943.25	575.25	
73.63899993896484	1350051.25	30261.	20497.666015625	2085.	450.	
74.88700103759766	1131100.	22961.5	18410.166015625	2702.5	516.75	
76.13500213623047	1140632.5	15120.75	21250.583984375	2360.333251953125	491.75	
77.38300323486328	1295088.5	123669.78125	18836.166015625	2326.916748046875	558.5	
78.63099670410156	1335229.25	18503.25	18519.	2360.333251953125	483.3333435058594	
79.87899780273438	1589320.375	28136.75	18869.416015625	2760.833251953125	508.3333435058594	
81.12799835205078	1097260.	11890.	19789.333984375	2502.25	708.5833129882813	
82.37599945068359	1110868.	18077.25	20250.5	3946.083251953125	341.6666564941406	
83.62400054931641	1020110.3125	17500.	27911.166015625	3036.166748046875	658.6666870117188	
84.87200164794922	1277173.5	28851.	24925.583984375	2360.416748046875	533.4166870117188	
86.12000274658203	2253123.5	34768.25	28864.916015625	1943.166625976563	466.75	
87.36799621582031	1335289.	19579.25	22284.583984375	2243.5	475.	
88.61599731445313	1243252.75	20558.	29035.75	2685.833251953125	583.3333129882813	
89.86399841308594	1270418.	30183.25	29605.416015625	2410.416748046875	491.75	
91.11199951171875	1408395.125	30779.5	29651.5	2977.833251953125	525.0833129882813	
92.36000061035156	1535174.	25017.25	24259.166015625	3670.416748046875	625.25	
93.60800170898438	1568989.5	28198.5	24058.5	3394.833251953125	500.0833435058594	
94.85700225830078	1480051.75	29677.25	35656.25	3570.083251953125	608.5	
96.10500335693359	2294250.	27370.75	47045.41796875	3077.833251953125	733.5	
97.35299682617188	1651443.	32013.5	57413.08203125	3386.5	625.0833129882813	
98.60099792480469	1401712.	29428.	31743.75	4237.83349609375	550.0833129882813	
99.8489990234375	3271215.5	24543.5	34151.08203125	2276.916748046875	525.1666870117188	
101.0970001220703	1405168.5	18628.	29770.666015625	2218.583251953125	441.6666564941406	
102.3450012207031	1623989.375	21032.25	21908.833984375	3753.916748046875	591.8333129882813	
103.5930023193359	1165326.75	17274.75	27404.416015625	2368.833251953125	625.1666870117188	
104.8410034179688	1601511.	13168.25	25949.	1976.583374023438	491.6666564941406	
106.088996887207	2269686.5	16273.5	22259.916015625	1709.75	533.4166870117188	
107.3369979858398	1243383.5	23112.	27987.083984375	1634.5	591.75	
108.5859985351563	1074554.75	10713.5	24389.583984375	1726.083374023438	541.8333129882813	
109.8339996337891	1196781.375	24121.75	26934.75	1492.666625976563	575.1666870117188	
111.0820007324219	1258442.25	17350.75	33287.66796875	1851.333374023438	500.0833435058594	
112.3300018310547	1182153.25	13392.75	61112.96484375	2377.166748046875	516.75	
113.5780029296875	1125207.875	17801.25	33996.5	1926.583374023438	775.1666870117188	
114.8259963989258	1565259.625	14118.75	32363.333984375	1667.833374023438	458.3333435058594	
116.0739974975586	1473991.125	26549.5	23254.25	1693.	583.5833129882813	
117.3219985961914	1062367.375	14619.75	33123.08203125	1676.166625976563	750.25	
118.5699996948242	1214264.625	18828.	21608.916015625	2510.583251953125	566.75	
119.818000793457	1206231.	23589.	22352.833984375	2293.5	433.3333435058594	
121.0660018920898	1444260.625	32710.	24063.5	3161.166748046875	666.8333129882813	
122.3150024414063	1838490.5	1492029.	45138.5	7392.5	633.4166870117188	
123.5630035400391	1714716.75	300699.4375	30291.083984375	16225.	875.5	
124.8109970092773	3025738.5	431006.9375	30755.5	3870.5	1751.333374023438	
126.0589981079102	3198120.75	117635.5	36692.25	8218.9169921875	725.25	
127.306999206543	2810880.	172878.5	27218.333984375	5205.66650390625	842.	
128.5549926757813	4544352.	266689.5625	30490.5	6349.75	650.25	
129.8029937744141	3676753.5	88549.	51234.64453125	5848.66650390625	1017.166687011719	
131.0509948730469	3991058.	413486.84375	29554.083984375	3228.083251953125	1592.916625976563	
132.2989959716797	3275075.	72365.5	39545.66796875	3853.916748046875	583.5833129882813	
133.5469970703125	5801809.5	184089.953125	32411.833984375	5698.91650390625	692.	
134.7949981689453	2176283.	75591.	28358.166015625	17798.75	491.75	
136.0440063476563	2520594.	154326.921875	29738.666015625	3102.916748046875	616.75	
137.2920074462891	2128549.5	76655.	30264.166015625	6357.41650390625	650.1666870117188	
138.5399932861328	2205597.75	117535.25	30740.916015625	3094.5	1159.083374023438	
139.7879943847656	2050072.25	98122.25	60034.7890625	17662.166015625	650.25	
141.0359954833984	2638692.	1233758.875	46707.41796875	4972.5	725.25	
142.2839965820313	3031665.5	143121.5	116731.625	2243.583251953125	725.25	
143.5319976806641	1789975.375	132184.8125	43285.83203125	3228.166748046875	692.	
144.7799987792969	1763168.875	2233132.	27021.833984375	2911.	658.5	
146.0279998779297	1735031.625	77872.25	34295.41796875	1876.416625976563	441.8333435058594	
147.2760009765625	1561031.	59003.75	24308.666015625	2193.5	833.9166870117188	
148.5240020751953	3300120.75	78404.5	27706.083984375	3136.25	600.1666870117188	
149.7729949951172	1650702.5	54138.5	27811.25	2577.333251953125	641.75	
151.02099609375	1674747.125	122011.5859375	24131.583984375	2602.333251953125	575.1666870117188	
152.2689971923828	1508197.75	281785.34375	30069.75	2602.416748046875	475.0833435058594	
153.5169982910156	1478293.625	47052.75	67826.1875	2427.083251953125	800.25	
154.7649993896484	1237471.25	928729.8125	37273.66796875	2318.666748046875	733.5	
156.0130004882813	1328429.	120128.5	28309.416015625	2318.583251953125	700.1666870117188	
157.2610015869141	1265866.125	49524.25	58920.39453125	2710.833251953125	650.4166870117188	
158.5090026855469	2218890.5	49086.	34922.	4329.75	1951.75	
159.7570037841797	1720651.75	130805.25	41199.41796875	3153.	992.	
161.0050048828125	2664249.25	77993.5	37834.25	3494.916748046875	925.4166870117188	
162.2530059814453	1422377.125	62491.5	51305.16796875	3987.75	1451.	
163.5019989013672	3258345.	2478003.5	35049.66796875	2468.916748046875	1701.333374023438	
164.75	1344142.375	84979.25	33825.16796875	4814.41650390625	908.8333129882813	
165.9980010986328	3418693.5	149029.03125	54369.58203125	3670.416748046875	1042.416625976563	
167.2460021972656	3221784.	70595.6484375	33319.66796875	2894.25	1184.083374023438	
168.4940032958984	1246614.75	65428.5	29140.083984375	3219.75	675.1666870117188	
169.7420043945313	2561049.5	194626.46875	35814.75	2568.916748046875	883.75	
170.9900054931641	1795800.375	73119.34375	33154.75	2952.833251953125	1050.666625976563	
172.2380065917969	1260145.5	96545.7109375	28826.416015625	8071.5	1300.916625976563	
173.4859924316406	1403116.	161651.5	38580.25	6057.	917.25	
174.7339935302734	1713092.75	128691.5	63137.83203125	6190.25	1484.333374023438	
175.9819946289063	1633425.	180308.	57873.	6975.41650390625	1008.833312988281	
177.2310028076172	2778324.	129261.	51785.58203125	6607.5	1384.5	
178.47900390625	8388226.	645497.3125	46570.58203125	5606.33349609375	1250.75	
179.7270050048828	5561745.	384197.6875	59663.48828125	6190.25	1167.25	
180.9750061035156	6240522.	133844.	42217.33203125	5973.58349609375	2661.083251953125	
182.2230072021484	1553558.875	215923.59375	38619.83203125	15240.5830078125	1334.25	
183.4709930419922	3576523.75	118433.	41027.25	5188.83349609375	1025.583374023438	
184.718994140625	1601051.25	136215.	58422.	5940.08349609375	1042.25	
185.9669952392578	1503251.875	274680.6875	45104.33203125	3486.75	1417.666625976563	
187.2149963378906	1379530.5	102152.25	30020.833984375	5156.08349609375	925.3333129882813	
188.4629974365234	1553836.	126057.5	30789.	3787.166748046875	1067.333374023438	
189.7109985351563	1353182.375	198315.4375	40985.16796875	3520.25	1000.416687011719	
190.9600067138672	2240682.	83590.5	56755.08203125	5205.91650390625	908.6666870117188	
192.2079925537109	1610668.75	98385.75	31123.833984375	5389.5	892.1666870117188	
193.4559936523438	1751390.5	82578.25	39368.41796875	2986.166748046875	742.	
194.7039947509766	1414632.75	57917.75	41557.91796875	2777.5	691.9166870117188	
195.9519958496094	1518682.625	118354.25	54023.	4321.58349609375	775.3333129882813	
197.1999969482422	1538712.125	63585.25	40777.75	3436.666748046875	908.75	
198.447998046875	1831700.875	174494.625	82820.2734375	2151.583251953125	625.1666870117188	
199.6959991455078	1481083.875	99029.75	29820.166015625	2677.416748046875	625.25	
200.9440002441406	1970520.	44036.75	38475.66796875	6518.16650390625	558.3333129882813	
202.1920013427734	1863670.625	34042.5	52927.83203125	2668.916748046875	716.8333129882813	
203.4400024414063	2938748.25	38855.25	38321.08203125	3770.333251953125	725.3333129882813	
204.6889953613281	1590005.875	54397.	35243.	3236.5	583.4166870117188	
205.9369964599609	2597536.25	30056.	43878.	2285.166748046875	908.9166870117188	
207.1849975585938	2755286.	48851.	33892.33203125	2660.666748046875	700.25	
208.4329986572266	1732986.75	64208.75	35805.25	2352.	800.3333129882813	
209.6809997558594	1890328.75	56831.	33029.08203125	2218.583251953125	641.8333129882813	
210.9290008544922	1429529.125	38107.	34791.75	3437.	575.25	
212.177001953125	1950646.5	26021.25	27932.75	3353.333251953125	1426.166625976563	
213.4250030517578	2086665.	22688.	25475.666015625	4598.16650390625	458.3333435058594	
214.6730041503906	1216485.375	19503.75	39482.16796875	2176.75	466.75	
215.9210052490234	1165442.75	22312.75	37142.41796875	2810.833251953125	783.5833129882813	
217.1690063476563	2096074.25	18753.75	49913.08203125	12931.6669921875	658.5833129882813	
218.4179992675781	1243292.75	19128.75	20489.083984375	2168.333251953125	525.	
219.6660003662109	1503788.875	23722.5	22251.25	1843.083374023438	616.75	
220.9140014648438	1694941.25	23789.75	24542.	2327.	441.75	
222.1620025634766	1636073.125	31363.25	30629.666015625	2769.166748046875	450.	
223.4100036621094	2122770.	34851.5	25058.25	1901.583374023438	450.	
224.6580047607422	1185982.75	30032.	28037.083984375	2218.583251953125	733.5833129882813	
225.906005859375	1748574.5	24290.75	51762.5	7565.16650390625	650.1666870117188	
227.1540069580078	1524003.625	198816.5	89643.6015625	7337.83349609375	1267.75	
228.4019927978516	1852667.5	36197.25	45672.66796875	3111.25	700.3333129882813	
229.6499938964844	2496698.	52410.	80557.9140625	3453.25	666.8333129882813	
230.8979949951172	1345678.125	53717.25	36347.33203125	8663.25	1075.666625976563	
232.1470031738281	1518239.75	32338.	100117.7890625	3729.	842.0833129882813	
233.3950042724609	1451823.125	37707.25	37107.33203125	2276.916748046875	483.5	
234.6430053710938	1798525.625	81858.484375	64778.57421875	3211.5	808.75	
235.8910064697266	2725867.75	26318.25	44498.33203125	3269.75	983.8333129882813	
237.1390075683594	1433188.5	34968.5	32376.666015625	2443.583251953125	616.9166870117188	
238.3869934082031	3823397.75	74661.5	38538.91796875	4513.25	575.	
239.6349945068359	1282105.875	58407.5	45683.83203125	3662.166748046875	516.75	
240.8829956054688	1329659.375	24917.5	46411.91796875	3670.25	950.4166870117188	
242.1309967041016	1370783.25	50357.5	36689.	2719.5	900.4166870117188	
243.3789978027344	1475008.875	50955.5	48546.33203125	9076.5830078125	791.9166870117188	
244.6269989013672	1553011.875	184565.4375	44225.41796875	3687.75	1259.25	
245.8760070800781	1293765.	33010.25	79647.3515625	2468.833251953125	583.5833129882813	
247.1239929199219	1801977.75	50746.75	61431.42578125	2644.	1459.5	
248.3719940185547	1739475.	43594.5	66580.25	2218.333251953125	758.5	
249.6199951171875	1434519.5	91664.	43044.41796875	4598.16650390625	742.	
250.8679962158203	1415586.5	87573.75	52768.33203125	2335.25	858.8333129882813	
252.1159973144531	1376391.	43139.75	33903.83203125	5826.83349609375	783.6666870117188	
253.3639984130859	1453629.5	89330.25	91409.1015625	1717.75	625.25	
254.6119995117188	2680360.5	103182.	40761.33203125	2944.333251953125	2636.666748046875	
255.8600006103516	2099980.	107326.25	45707.58203125	2852.583251953125	783.6666870117188	
257.1080017089844	3548602.75	76455.3046875	43752.	12203.6669921875	808.75	
258.3559875488281	2089637.75	45334.7734375	38989.66796875	4664.75	1075.75	
259.6050109863281	1715561.5	36369.75	31733.666015625	2168.583251953125	975.6666870117188	
260.8529968261719	6885433.5	92704.078125	68083.890625	2235.166748046875	950.4166870117188	
262.1010131835938	1724525.875	236454.4375	89802.15625	2911.083251953125	975.5	
263.3489990234375	1587119.25	162208.53125	32905.41796875	1793.	942.3333129882813	
264.5969848632813	1465614.5	188056.3125	53666.00390625	3161.5	2385.416748046875	
265.8450012207031	1569460.25	128004.8125	48745.5	2009.916625976563	750.3333129882813	
267.0929870605469	1562250.25	46745.	31156.75	8559.9169921875	600.1666870117188	
268.3410034179688	1509973.25	70841.	43457.58203125	2794.416748046875	850.25	
269.5889892578125	2324846.75	125152.25	113825.0859375	6974.75	783.6666870117188	
270.8370056152344	1832668.	249846.453125	107212.5390625	11845.1669921875	950.5	
272.0849914550781	2303741.75	360729.09375	100043.0859375	8117.83349609375	1943.333374023438	
273.3340148925781	4924400.	260215.	163190.671875	10656.25	1893.166625976563	
274.5820007324219	2578117.	517765.875	223258.375	10589.3330078125	2902.833251953125	
275.8299865722656	2711561.	223492.9375	130857.25	9235.9169921875	1617.916625976563	
277.0780029296875	2907760.5	402528.125	91270.3359375	14455.1669921875	1717.833374023438	
278.3259887695313	1986811.5	512358.125	150787.78125	12225.9169921875	1359.166625976563	
279.5740051269531	3602400.	234566.953125	114558.03125	7667.41650390625	1676.333374023438	
280.8219909667969	2833444.	357516.6875	87428.0859375	9564.1669921875	1517.833374023438	
282.0700073242188	1787234.625	229989.	88879.3359375	8035.25	1175.666625976563	
283.3179931640625	2345081.	120833.25	78691.0859375	8728.	1567.75	
284.5660095214844	2875388.75	416538.8125	128707.59375	7558.91650390625	1734.666625976563	
285.8139953613281	1595038.	197225.5	97749.4609375	23648.	2076.666748046875	
287.06298828125	2297635.25	661956.625	88980.75	6691.16650390625	1893.	
288.3110046386719	2361381.75	122389.	58726.75	5689.58349609375	1092.333374023438	
289.5589904785156	1592912.	809092.875	94485.8359375	4788.25	2927.916748046875	
290.8070068359375	1632694.625	105418.5	64004.66796875	7976.83349609375	983.9166870117188	
292.0549926757813	2298764.75	99015.25	101688.8359375	5013.58349609375	2043.416625976563	
293.3030090332031	5132462.5	214274.921875	93232.5	3795.25	1242.583374023438	
294.5509948730469	5568173.	238547.	54996.25	8396.3330078125	1684.666625976563	
295.7990112304688	2574865.75	606316.625	59715.75	4588.	1050.666625976563	
297.0469970703125	2787983.75	171141.5	83265.1640625	5865.08349609375	1217.416625976563	
298.2950134277344	3743592.25	156918.75	95915.453125	4930.33349609375	1634.5	
299.5429992675781	7388825.	104286.75	66146.9140625	5640.83349609375	3537.5	
300.7919921875	3962614.	623500.4375	58729.83203125	3853.666748046875	1109.083374023438	
302.0400085449219	4871679.	2142006.75	190464.25	7001.41650390625	1592.916625976563	
303.2879943847656	3081127.	140520.	201308.6875	4588.41650390625	1325.833374023438	
304.5360107421875	2878030.25	108547.5	93056.1484375	2844.25	2302.083251953125	
305.7839965820313	2143036.75	492033.53125	49837.75	2835.916748046875	1292.583374023438	
307.0320129394531	3527610.	50167.6796875	108615.2890625	4846.75	1684.833374023438	
308.2799987792969	1523272.375	127985.578125	47918.25	4413.08349609375	3562.25	
309.5280151367188	2247138.75	438445.0625	42798.25	2836.083251953125	1150.583374023438	
310.7760009765625	3628855.75	170942.8125	48652.16796875	3595.166748046875	1509.333374023438	
312.0239868164063	2661840.75	59323.515625	63165.91796875	7079.83349609375	1667.916625976563	
313.2720031738281	3829434.5	34113.5	60720.33203125	7510.5	1926.666625976563	
314.52099609375	3918160.5	187491.875	98912.3125	4313.08349609375	1960.	
315.7690124511719	4583952.	177443.	58139.08203125	4864.16650390625	2527.75	
317.0169982910156	2520026.75	209546.1875	73266.3359375	4371.16650390625	1292.416625976563	
318.2650146484375	5026302.	46885.	140741.40625	5430.91650390625	992.1666870117188	
319.5130004882813	3974844.75	257176.625	68787.78125	7034.41650390625	1417.666625976563	
320.760986328125	6271564.	611726.25	44606.41796875	15950.25	1643.	
322.0090026855469	1930536.5	249573.84375	55342.5	3470.083251953125	850.3333129882813	
323.2569885253906	3225973.5	1294836.125	54979.08203125	3987.416748046875	942.1666870117188	
324.5050048828125	1600595.5	205901.65625	63472.39453125	6374.16650390625	791.9166870117188	
325.7529907226563	2959514.	130982.5	66898.8359375	10331.1669921875	883.5833129882813	
327.0010070800781	1897938.25	473364.75	70492.5859375	10939.9169921875	1267.416625976563	
328.25	4416839.	650240.875	140254.828125	17744.5	1751.25	
329.4979858398438	3812516.	519113.21875	215504.359375	12592.1669921875	4730.41650390625	
330.7460021972656	3694002.5	960336.	174396.171875	17660.25	1859.75	
331.9939880371094	2828269.	1011662.75	218426.53125	18678.666015625	1918.25	
333.2420043945313	5420419.	1071357.125	252706.84375	19664.083984375	2176.916748046875	
334.489990234375	4995090.5	794353.1875	240919.78125	22168.583984375	1726.416625976563	
335.7380065917969	4259997.5	829484.0625	189990.578125	17904.416015625	2735.833251953125	
336.9859924316406	2607426.	881891.875	147215.078125	17879.916015625	2101.75	
338.2340087890625	2893359.75	845306.	170654.328125	23987.083984375	1692.75	
339.4819946289063	3147824.25	452399.65625	149247.5	12784.75	1809.833374023438	
340.7300109863281	2628848.25	893843.125	124367.75	8527.	1643.	
341.97900390625	2857693.25	568899.5	135807.828125	14339.9169921875	3337.25	
343.2269897460938	2491111.5	1200684.75	211426.6875	11382.	2318.75	
344.4750061035156	19130514.	886684.25	173423.296875	18539.75	2035.083374023438	
345.7229919433594	3028037.75	770738.625	339076.59375	35956.83984375	2844.333251953125	
346.9710083007813	2798699.	1038115.6875	191245.96875	19917.25	2711.	
348.218994140625	2229656.25	1483100.875	219521.578125	7759.	2844.583251953125	
349.4670104980469	4622346.	1605009.25	152612.65625	12067.1669921875	4171.91650390625	
350.7149963378906	6848804.5	1439235.75	278586.09375	25526.5	3745.833251953125	
351.9630126953125	5209110.	1167971.25	143257.40625	20883.	2352.	
353.2109985351563	3375096.	2857344.	222349.1875	20543.416015625	2485.583251953125	
354.4590148925781	4780914.5	799554.375	220346.21875	21512.833984375	2552.416748046875	
355.7080078125	4475551.	1217872.75	289870.59375	18508.75	1959.833374023438	
356.9559936523438	3079583.25	781741.1875	170560.21875	26035.916015625	2226.833251953125	
358.2040100097656	6035968.	1640925.875	105913.5	30450.416015625	2352.	
359.4519958496094	3131471.	1469573.5	148275.40625	28105.5	1826.5	
360.7000122070313	3697033.75	795988.875	152788.59375	13336.9169921875	3979.75	
361.947998046875	3852371.25	2430576.25	190122.125	15646.4169921875	1617.75	
363.1960144042969	5859257.	845042.	90802.9140625	14532.75	1526.25	
364.4440002441406	2349494.25	1327961.25	226206.671875	17603.583984375	1292.416625976563	
365.6919860839844	2824378.5	152756.5	106594.6953125	9304.4169921875	1392.75	
366.9400024414063	1783063.125	508775.5625	84991.5	9696.1669921875	1250.916625976563	
368.18798828125	1626830.625	515200.5625	70035.0859375	8220.8330078125	1334.25	
369.43701171875	2887968.75	1953562.	89535.0859375	12134.	1325.916625976563	
370.6849975585938	3568772.	169472.171875	57124.	4346.33349609375	1192.333374023438	
371.9330139160156	4854980.5	409068.9375	111919.7578125	6708.25	1684.583374023438	
373.1809997558594	1987953.125	374518.6875	296259.8125	20368.75	883.75	
374.4289855957031	1607565.375	229467.90625	82458.0703125	7253.33349609375	858.75	
375.677001953125	2002050.	67324.5	46121.91796875	3445.083251953125	1401.083374023438	
376.9249877929688	1960607.25	45471.75	141919.9375	4095.916748046875	1234.166625976563	
378.1730041503906	2143964.5	47655.	87209.1640625	10838.75	1100.583374023438	
379.4209899902344	1456725.25	93037.84375	66356.75	5599.16650390625	1025.583374023438	
380.6690063476563	3727330.5	46688.5	65279.91796875	5882.08349609375	650.25	
381.9169921875	2310070.75	53216.	55281.	5748.25	1159.166625976563	
383.1659851074219	1855866.75	17023.75	73681.1640625	3011.083251953125	933.8333129882813	
384.4140014648438	1912380.25	23689.	81735.5859375	3570.416748046875	766.9166870117188	
385.6619873046875	1394976.25	929818.6875	67158.5859375	3244.666748046875	3546.	
386.9100036621094	2456972.	141209.546875	69419.6640625	2018.25	850.25	
388.1579895019531	1431475.5	62450.5	79233.	2952.666748046875	925.5	
389.406005859375	1386684.25	53836.75	52993.33203125	3328.25	750.3333129882813	
390.6539916992188	1660921.75	30410.25	96536.6875	3528.583251953125	625.0833129882813	
391.9020080566406	2269228.	9143.0625	67492.9140625	2852.583251953125	692.	
393.1499938964844	2170551.	28606.	54108.83203125	4079.416748046875	983.9166870117188	
394.3980102539063	2082265.375	52698.25	66081.25	12002.0830078125	641.8333129882813	
395.64599609375	1409178.75	118726.4296875	50531.41796875	2719.083251953125	616.9166870117188	
396.8949890136719	1289921.5	32387.5	50515.	2727.416748046875	491.6666564941406	
398.1430053710938	2243220.	87417.75	63212.	4037.5	733.5	
399.3909912109375	2702634.25	129041.8671875	67078.8359375	2877.5	850.3333129882813	
400.6390075683594	1305086.875	38244.21875	80061.0859375	4179.5	908.8333129882813	
401.8869934082031	3004224.25	35692.25	140602.84375	3011.083251953125	950.4166870117188	
403.135009765625	1598436.375	58189.75	74149.1640625	3987.666748046875	892.	
404.3829956054688	1566006.	58657.	55771.	6619.91650390625	700.25	
405.6310119628906	1908003.625	39810.75	71910.8359375	4972.5	566.75	
406.8789978027344	1536520.625	17802.5	83570.4609375	4179.41650390625	1284.333374023438	
408.1270141601563	1474250.5	16100.25	75754.3984375	3795.666748046875	758.6666870117188	
409.375	2601458.5	17851.25	67572.1640625	3119.583251953125	675.1666870117188	
410.6239929199219	1769867.	24945.5	59001.83203125	2385.25	1451.083374023438	
411.8720092773438	1860340.875	16424.5	90563.6640625	3178.166748046875	908.9166870117188	
413.1199951171875	1379091.75	37958.5	81358.7890625	4313.08349609375	908.6666870117188	
414.3680114746094	1854329.25	55697.5	70468.75	3086.416748046875	733.5833129882813	
415.6159973144531	1284282.625	15928.	76858.5	2493.833251953125	625.1666870117188	
416.864013671875	1773291.75	69619.25	47192.41796875	5700.16650390625	641.8333129882813	
418.1119995117188	1505298.	12766.5	46405.	4630.58349609375	783.5833129882813	
419.3599853515625	1241347.375	18830.	65448.41796875	3386.583251953125	750.25	
420.6080017089844	1432528.	35324.75	67811.0859375	3244.75	825.4166870117188	
421.8559875488281	1235712.	37173.25	59599.75	3970.666748046875	625.0833129882813	
423.10400390625	1213968.	43621.75	61690.83203125	9089.6669921875	842.0833129882813	
424.3529968261719	1236598.25	50966.75	51082.	4922.83349609375	950.4166870117188	
425.6010131835938	1250530.	56021.75	63964.25	9013.75	691.9166870117188	
426.8489990234375	1383728.125	87894.90625	87541.75	3494.916748046875	625.0833129882813	
428.0969848632813	1188933.	61614.25	41078.58203125	7042.41650390625	691.9166870117188	
429.3450012207031	5355127.5	57005.	40192.58203125	3319.833251953125	700.25	
430.5929870605469	1636660.75	164596.578125	39592.	2860.833251953125	625.25	
431.8410034179688	1173448.	45548.75	73082.75	5255.66650390625	758.5833129882813	
433.0889892578125	1615955.75	44047.	82576.0390625	3720.333251953125	616.75	
434.3370056152344	2506464.75	92255.109375	58430.58984375	6717.75	867.1666870117188	
435.5849914550781	1208064.	63142.5	37501.91796875	3144.833251953125	525.0833129882813	
436.8330078125	1073854.75	1489741.25	53032.5	3111.333251953125	475.1666564941406	
438.0820007324219	1113471.25	95001.25	46385.83203125	4997.41650390625	600.1666870117188	
439.3299865722656	1646446.25	86130.21875	74684.5	13110.25	833.8333129882813	
440.5780029296875	1273067.	55159.25	101229.8359375	5155.41650390625	967.25	
441.8259887695313	1209971.5	60510.	47665.41796875	6373.66650390625	792.0833129882813	
443.0740051269531	1278458.	46578.5	52013.58203125	4337.75	708.5833129882813	
444.3219909667969	1325736.5	47682.	85648.1484375	7508.83349609375	817.	
445.5700073242188	1395713.25	88993.25	55255.16796875	7442.41650390625	975.4166870117188	
446.8179931640625	1291011.	50791.25	60401.	6415.58349609375	700.25	
448.0660095214844	1892087.25	56943.	71507.8359375	7592.33349609375	908.8333129882813	
449.3139953613281	1347652.5	34489.5	66679.0859375	9989.5830078125	758.5833129882813	
450.56201171875	1504414.	32813.	183524.796875	5806.41650390625	975.4166870117188	
451.8110046386719	1595909.875	110578.	62164.75	10365.3330078125	608.4166870117188	
453.0589904785156	1463608.	39129.5	87140.8359375	30849.248046875	708.5833129882813	
454.3070068359375	1446692.5	85469.328125	74341.75	8419.6669921875	942.0833129882813	
455.5549926757813	1582194.75	24564.25	66480.1640625	5314.08349609375	758.5833129882813	
456.8030090332031	1359743.375	22685.25	69394.4140625	11166.3330078125	1593.083374023438	
458.0509948730469	1729440.25	62427.	72419.	6540.91650390625	975.4166870117188	
459.2990112304688	1981703.	37522.25	72145.9140625	6006.83349609375	925.4166870117188	
460.5469970703125	1481455.25	27548.75	75015.0859375	9697.0830078125	716.8333129882813	
461.7950134277344	1296508.875	16272.5	176183.140625	18569.94140625	767.	
463.0429992675781	1363579.5	68807.5	83390.0859375	5397.41650390625	900.25	
464.2909851074219	1434781.125	27904.5	89673.0234375	4429.58349609375	1292.5	
465.5400085449219	2523474.25	18702.25	122276.	3728.5	1259.166625976563	
466.7879943847656	1321469.25	26446.	70975.75	4513.	867.25	
468.0360107421875	1605413.875	16347.75	130803.4140625	3795.25	958.75	
469.2839965820313	1385495.375	31684.25	142888.78125	4312.66650390625	666.8333129882813	
470.5320129394531	1480864.5	19278.75	81959.6640625	4179.08349609375	833.5833129882813	
471.7799987792969	1577298.75	26197.5	92916.0625	3520.083251953125	783.5833129882813	
473.0280151367188	1562578.875	16097.25	80490.	34748.67578125	658.5833129882813	
474.2760009765625	2686893.75	104271.28125	123838.6484375	8875.75	767.0833129882813	
475.5239868164063	1869530.75	13918.5	95362.53125	4287.58349609375	750.1666870117188	
476.7720031738281	1460861.875	24366.75	107325.15625	5130.66650390625	892.0833129882813	
478.0199890136719	1658590.375	16673.25	75092.3359375	7350.66650390625	758.5833129882813	
479.2690124511719	1534874.	29205.25	93417.	4988.66650390625	1033.916625976563	
480.5169982910156	1673424.875	51229.25	80804.	6883.75	783.6666870117188	
481.7650146484375	2010686.	36378.5	90232.5859375	5297.33349609375	725.25	
483.0130004882813	2289815.5	33593.25	74586.8359375	8471.5830078125	1100.666625976563	
484.260986328125	1464431.75	53290.5	114932.140625	4212.66650390625	1217.333374023438	
485.5090026855469	2398470.	21659.	125836.4609375	4104.25	1542.833374023438	
486.7569885253906	1534965.5	30937.25	138333.296875	6641.08349609375	658.5	
488.0050048828125	2253931.	22812.	102151.3359375	3887.166748046875	733.5833129882813	
489.2529907226563	1462402.75	19027.5	118709.125	3853.916748046875	925.25	
490.5010070800781	3169176.	21910.5	112317.640625	4479.75	1025.416625976563	
491.7489929199219	1741929.875	21007.5	72592.5	5030.33349609375	1109.	
492.9979858398438	2240251.5	16674.5	89639.1640625	6575.41650390625	925.4166870117188	
494.2460021972656	4115244.	18652.25	78847.3359375	6048.66650390625	1384.333374023438	
495.4939880371094	1638652.75	19906.25	157390.015625	5522.75	650.1666870117188	
496.7420043945313	2100578.5	19531.	82986.25	6307.58349609375	950.5833129882813	
497.989990234375	1599482.625	15897.	83410.0859375	5489.5	975.5	
499.2380065917969	1699842.25	16773.5	117742.	11320.4169921875	1442.75	
500.4859924316406	1806239.75	148207.71875	105862.9140625	4304.66650390625	1150.583374023438	
501.7340087890625	1858538.75	49831.25	113770.75	4354.41650390625	758.6666870117188	
502.9819946289063	2426796.25	29979.5	152386.609375	3436.666748046875	792.	
504.2300109863281	2072171.625	12716.75	125608.59375	5740.08349609375	1042.25	
505.4779968261719	1820567.75	16225.	189689.5	7277.58349609375	1108.833374023438	
506.7269897460938	2029923.25	14244.25	90205.3359375	7805.16650390625	825.3333129882813	
507.9750061035156	2965987.75	16298.75	112130.0859375	9634.3330078125	1217.416625976563	
509.2229919433594	1560804.	16198.25	88976.4140625	3870.333251953125	1075.583374023438	
510.4710083007813	1445982.125	25981.75	204648.015625	28482.134765625	775.3333129882813	
511.718994140625	1618267.75	52350.	131461.953125	15795.1669921875	5192.75	
512.9669799804688	1844618.	184500.671875	146125.765625	11208.6669921875	925.5	
514.2150268554688	1511565.5	31752.25	104090.390625	5823.	1058.916625976563	
515.4630126953125	1905074.5	39215.	122483.1015625	9007.0830078125	700.25	
516.7109985351563	1432027.75	16924.	78298.4140625	6941.66650390625	650.3333129882813	
517.958984375	1667508.375	27905.25	93347.0859375	5030.25	1175.666625976563	
519.2069702148438	1563990.	13994.5	311389.34375	4463.	842.	
520.4559936523438	1668989.875	19204.25	99766.1640625	4922.08349609375	775.4166870117188	
521.7039794921875	1512919.875	11038.75	115073.359375	7069.66650390625	1217.583374023438	
522.9520263671875	1549020.375	50526.	129157.453125	10094.	983.8333129882813	
524.2000122070313	2655777.5	16098.25	314517.4375	6198.58349609375	992.1666870117188	
525.447998046875	2004796.5	8234.5	103813.4140625	6766.33349609375	1426.083374023438	
526.6959838867188	3021595.	14796.25	103959.25	7375.16650390625	925.5	
527.9439697265625	1596672.875	15948.25	164317.09375	7208.33349609375	808.75	
529.1920166015625	2011761.	17275.5	105833.4140625	5923.	933.9166870117188	
530.4400024414063	1916826.5	12015.5	120613.1640625	7508.91650390625	1042.25	
531.68798828125	1677812.375	32307.25	148188.71875	6148.58349609375	891.9166870117188	
532.9359741210938	1679782.5	9486.25	149021.453125	10774.5	5729.25	
534.1849975585938	1753357.5	41919.	176312.171875	9170.0830078125	942.25	
535.4329833984375	1483618.25	11765.	109179.9140625	6783.	1167.416625976563	
536.6810302734375	1327021.25	15096.75	114755.5859375	7500.5	817.	
537.9290161132813	2400922.5	9637.25	112879.8984375	6182.25	666.8333129882813	
539.177001953125	1734402.75	11140.	91597.3359375	5305.75	1008.833312988281	
540.4249877929688	1525600.25	7383.	73617.8359375	5798.16650390625	716.9166870117188	
541.6729736328125	1309560.	7784.	142874.484375	5890.5	875.4166870117188	
542.9210205078125	1417777.5	8409.75	70958.6640625	10913.1669921875	700.3333129882813	
544.1690063476563	1689330.5	8009.25	122904.671875	13716.3330078125	983.9166870117188	
545.4169921875	1380496.625	28676.25	109906.953125	3520.	1025.5	
546.6649780273438	1417867.25	55317.75	146222.1875	5790.41650390625	992.0833129882813	
547.9140014648438	1394549.375	27020.5	85529.5	3912.166748046875	908.8333129882813	
549.1619873046875	1549760.	29101.	118991.3984375	11390.4169921875	758.6666870117188	
550.4099731445313	1795785.	32133.5	91442.4140625	5682.75	650.0833129882813	
551.6580200195313	1596187.	52446.75	55677.91796875	4396.33349609375	833.5833129882813	
552.906005859375	1480893.5	34239.	64353.41796875	4004.083251953125	1501.166625976563	
554.1539916992188	1570779.625	41885.5	102993.1640625	4204.41650390625	708.5	
555.4019775390625	4356204.5	98048.25	369516.8125	5130.58349609375	533.3333129882813	
556.6500244140625	3340590.	65099.5	104824.1640625	3403.166748046875	892.0833129882813	
557.8980102539063	3817925.	69368.25	341399.84375	3319.916748046875	733.4166870117188	
559.14599609375	3186869.75	39010.75	127551.5	4387.83349609375	3313.	
560.3939819335938	1846116.75	26570.	147025.9375	8815.5830078125	850.3333129882813	
561.6430053710938	1636743.	26819.25	162591.953125	4579.58349609375	1267.416625976563	
562.8909912109375	1584396.25	26344.75	78228.0859375	6190.66650390625	942.1666870117188	
564.1389770507813	1378892.125	87326.9609375	182130.84375	8494.	1034.	
565.3870239257813	3869645.	42914.25	96909.6640625	7927.91650390625	1350.916625976563	
566.635009765625	1838748.	21833.5	92915.3359375	5113.83349609375	750.4166870117188	
567.8829956054688	9957678.	29779.5	111337.6640625	7526.41650390625	959.	
569.1309814453125	2032540.5	3546132.5	119152.9765625	6557.66650390625	767.	
570.3790283203125	1488984.25	46700.	199711.484375	6357.08349609375	691.8333129882813	
571.6270141601563	1729017.375	17376.	135491.921875	7308.66650390625	691.9166870117188	
572.875	1653397.375	44799.25	194902.796875	5973.16650390625	825.3333129882813	
574.1229858398438	2675750.5	39736.484375	156777.828125	9153.1669921875	1033.916625976563	
575.3720092773438	2005932.25	16773.5	148547.828125	9212.4169921875	1217.416625976563	
576.6199951171875	2015687.375	16247.75	313050.875	9570.1669921875	1075.583374023438	
577.8679809570313	2028365.	15821.5	178069.5	10129.9169921875	1793.083374023438	
579.1160278320313	1821380.	12966.75	209351.828125	10305.4169921875	1050.583374023438	
580.364013671875	2752912.	16899.	182653.171875	6440.16650390625	1618.	
581.6119995117188	2725025.75	17863.4765625	165844.828125	13157.8330078125	1284.	
582.8599853515625	1928641.75	20081.5	179186.171875	8568.5830078125	1217.416625976563	
584.1079711914063	1731159.375	19503.5	205733.96875	11874.6669921875	2452.583251953125	
585.3560180664063	2517247.	19428.5	169985.5	9496.5	1008.916687011719	
586.60400390625	2515503.75	30456.5	168593.828125	11868.3330078125	1667.916625976563	
587.8519897460938	1826674.	25192.75	150715.671875	16081.1669921875	1259.083374023438	
589.1010131835938	2321723.75	62042.75	228419.828125	15325.75	925.5	
590.3489990234375	2123631.75	25297.046875	242480.28125	14195.5830078125	1551.166625976563	
591.5969848632813	2522414.75	20079.75	198388.	15707.6669921875	1184.083374023438	
592.844970703125	3680759.5	20857.	258449.109375	9769.9169921875	1517.75	
594.093017578125	2493028.	21860.25	175111.828125	33271.75	1300.833374023438	
595.3410034179688	3339505.	20056.	205290.	20814.5	1050.666625976563	
596.5889892578125	3016023.25	19504.	211268.6875	10029.4169921875	1317.5	
597.8369750976563	2584211.	16422.75	344242.65625	10597.4169921875	2660.75	
599.0850219726563	3728985.	36969.75	197904.46875	10029.25	2552.5	
600.3330078125	5369494.5	19754.	222448.328125	30146.583984375	1626.25	
601.5809936523438	5029013.5	19779.25	209186.5	12817.5830078125	2352.083251953125	
602.8300170898438	2488139.	20430.75	258920.90625	24812.25	1400.833374023438	
604.0780029296875	2307387.75	19028.25	230070.171875	13920.9169921875	2076.75	
605.3259887695313	8956526.	24818.5	290486.625	23888.833984375	1401.	
606.573974609375	3257366.5	20054.75	240211.	11733.75	1626.333374023438	
607.822021484375	2391081.5	182788.109375	248202.25	9294.9169921875	1301.	
609.0700073242188	2376384.5	16949.25	237571.	11974.5830078125	2285.416748046875	
610.3179931640625	2929315.	16473.	213682.671875	11826.9169921875	1367.666625976563	
611.5659790039063	2755035.	20883.5	225521.890625	10488.5830078125	1492.75	
612.8140258789063	2267626.	18201.5	297104.28125	11565.1669921875	1651.333374023438	
614.06201171875	2231005.75	28349.25	231300.328125	10796.75	1134.083374023438	
615.3099975585938	3024584.	57154.	212706.	23722.25	1592.75	
616.5590209960938	2762710.5	57356.	319684.875	18070.75	1667.833374023438	
617.8070068359375	2342899.75	48484.25	232014.671875	16009.5830078125	1659.583374023438	
619.0549926757813	3275707.5	67701.25	229358.265625	10980.5830078125	1501.166625976563	
620.302978515625	3372659.25	54907.	227087.625	14403.4169921875	1325.75	
621.551025390625	2372574.5	61637.	229803.34375	13059.1669921875	1526.	
622.7990112304688	1966008.125	37472.25	262731.46875	11306.0830078125	1501.	
624.0469970703125	2773880.5	43465.25	281658.65625	17745.583984375	1300.916625976563	
625.2949829101563	2098510.	39329.75	202259.9375	15723.6669921875	1484.333374023438	
626.5430297851563	2395172.75	42163.	190961.828125	9511.5	1209.166625976563	
627.791015625	2398394.75	41847.	201816.625	12458.0830078125	1367.666625976563	
629.0390014648438	2047262.5	29727.	202829.9375	23378.416015625	1793.166625976563	
630.2880249023438	2044917.625	20831.75	202773.84375	12133.6669921875	1100.666625976563	
631.5360107421875	3030727.75	19453.5	191457.5	12209.3330078125	1284.	
632.7839965820313	2131703.75	17600.	235733.703125	12484.25	1367.583374023438	
634.031982421875	4671015.5	18176.75	340794.1875	8685.6669921875	1367.583374023438	
635.280029296875	2304548.	16197.5	296464.59375	10512.9169921875	1250.75	
636.5280151367188	2139741.75	30213.5	201858.	11701.0830078125	1309.166625976563	
637.7760009765625	2281952.75	11715.	209861.375	10480.	942.1666870117188	
639.0239868164063	2549187.5	14744.5	263925.4375	7834.16650390625	817.	
640.27197265625	3936558.5	16198.75	178979.171875	8635.0830078125	1050.583374023438	
641.52001953125	2356581.25	11214.	154929.671875	8535.5	1634.666625976563	
642.7680053710938	4230014.	14469.5	210892.859375	15693.0830078125	933.8333129882813	
644.0170288085938	4670596.5	12165.75	243666.3125	11123.25	1175.75	
645.2650146484375	2735145.5	17251.	393195.15625	13361.4169921875	775.3333129882813	
646.5130004882813	2475052.	13193.	190216.5	12511.1669921875	1593.	
647.760986328125	2101927.25	18677.	268946.5	7083.	2026.75	
649.0089721679688	1930690.125	13342.75	187372.046875	12560.3330078125	1292.5	
650.2570190429688	1760807.	11414.75	157492.359375	9706.3330078125	783.6666870117188	
651.5050048828125	2317381.5	14570.25	277523.1875	10841.3330078125	975.4166870117188	
652.7529907226563	1716427.5	14445.	207875.1875	4463.	1300.833374023438	
654.0009765625	2422468.	10037.25	147216.5	5188.75	967.1666870117188	
655.2490234375	3484247.5	9962.	223034.109375	6983.91650390625	867.	
656.4970092773438	1956216.	19587.	159378.109375	5806.16650390625	900.25	
657.7459716796875	2234769.	11063.75	223396.546875	17087.916015625	808.6666870117188	
658.9940185546875	2060557.5	11139.5	147938.5	5906.5	691.9166870117188	
660.2420043945313	2164918.	19738.5	197702.671875	8477.0830078125	967.1666870117188	
661.489990234375	1966862.125	42164.5	350134.03125	12251.4169921875	833.75	
662.7379760742188	1786084.125	10888.5	232997.78125	18134.916015625	1025.5	
663.9860229492188	3969511.	7533.75	146370.359375	24479.916015625	908.8333129882813	
665.2340087890625	1668577.125	7383.25	175220.5	14177.1669921875	1284.083374023438	
666.4819946289063	1605570.	12541.	275984.34375	19256.666015625	1025.583374023438	
667.72998046875	1836538.5	7834.	251950.40625	11548.3330078125	950.5	
668.97802734375	2223401.5	7734.	183948.953125	15631.25	1167.333374023438	
670.2260131835938	3244748.5	11815.5	214794.375	19251.916015625	1300.833374023438	
671.4749755859375	2402233.75	10463.	277450.375	37553.16796875	766.9166870117188	
672.7230224609375	3132316.	11916.25	261336.015625	20473.833984375	883.75	
673.9710083007813	1723158.25	10112.5	404597.59375	31953.5	1109.	
675.218994140625	1840649.5	10337.5	528134.3125	38231.5	1150.666625976563	
676.4669799804688	1519483.5	7508.5	230874.96875	49475.41796875	2802.583251953125	
677.7150268554688	1508768.5	10337.75	263105.5625	58700.33203125	983.6666870117188	
678.9630126953125	4082664.	10112.25	790628.125	65417.91796875	2594.083251953125	
680.2109985351563	2488057.75	12617.5	4414150.5	126434.9140625	2393.75	
681.458984375	1977020.875	11264.25	586712.3125	150304.328125	2485.583251953125	
682.7069702148438	2166625.	13618.5	460549.21875	157782.9375	2794.166748046875	
683.9550170898438	1877037.75	8660.25	555478.375	66372.0859375	9738.8330078125	
685.2039794921875	1899695.875	9185.75	759394.0625	122974.9453125	1726.25	
686.4520263671875	2227733.	8835.5	266380.	43820.	2226.833251953125	
687.7000122070313	1901466.375	15096.	347951.71875	85770.078125	2610.75	
688.947998046875	1935925.125	13518.25	210138.828125	50394.33203125	2143.583251953125	
690.1959838867188	2901269.	7809.	351842.0625	44286.91796875	1200.75	
691.4439697265625	2090153.	9085.75	218503.671875	57378.25	1526.083374023438	
692.6920166015625	1810114.375	7708.75	278274.46875	23638.833984375	1768.	
693.9400024414063	2414307.25	7733.75	205721.171875	27068.	1259.333374023438	
695.18798828125	1720145.	9887.	230501.53125	22014.916015625	1242.5	
696.4359741210938	1870359.375	11064.	257232.78125	24749.75	1668.083374023438	
697.6840209960938	1832108.	11163.75	192919.671875	14262.4169921875	1359.333374023438	
698.9329833984375	1971679.625	10437.5	170573.734375	21628.583984375	1159.	
700.1810302734375	1991502.25	9110.75	127410.9140625	15230.9169921875	850.4166870117188	
701.4290161132813	1745873.5	5806.25	155513.234375	14750.	875.5	
702.677001953125	1750803.	8484.75	119979.75	11115.5830078125	1125.75	
703.9249877929688	2404711.5	6882.5	88844.8359375	12178.3330078125	983.8333129882813	
705.1729736328125	1532807.5	26422.75	71672.4140625	11232.0830078125	917.1666870117188	
706.4210205078125	1530401.625	48717.	71017.	6899.83349609375	642.	
707.6690063476563	2052713.25	5731.25	76588.1640625	7091.41650390625	825.4166870117188	
708.9169921875	1653474.75	31484.25	86517.5859375	10791.	767.	
710.1649780273438	1711092.	5080.	60577.75	11285.25	917.0833129882813	
711.4130249023438	1772971.375	7734.	132887.265625	5171.91650390625	816.9166870117188	
712.6619873046875	1780485.25	13843.25	56522.	11593.4169921875	742.0833129882813	
713.9099731445313	3020329.5	2285576.	90521.3359375	9078.5	633.4166870117188	
715.1580200195313	1598214.75	5130.25	52163.16796875	13039.	1075.75	
716.406005859375	2534152.5	6532.25	75732.5859375	7601.08349609375	733.5833129882813	
717.6539916992188	1709613.5	7008.	54385.91796875	7743.83349609375	616.8333129882813	
718.9019775390625	4238178.	11139.75	46348.58203125	6131.91650390625	817.0833129882813	
720.1500244140625	2488629.75	6332.	52661.91796875	4254.25	875.3333129882813	
721.3980102539063	2513804.	7258.25	57822.08203125	8677.75	625.1666870117188	
722.64599609375	1959352.375	5530.75	60765.25	3978.916748046875	817.0833129882813	
723.8939819335938	1873631.625	8435.5	54661.75	4237.41650390625	650.1666870117188	
725.1420288085938	2593069.25	6982.75	69559.8515625	11923.4169921875	850.4166870117188	
726.3909912109375	4731468.	10137.5	51868.16796875	6725.16650390625	658.5	
727.6389770507813	2445538.	8835.5	76428.5859375	5214.	650.0833129882813	
728.8870239257813	1999442.375	8485.	50420.08203125	4605.	600.0833129882813	
730.135009765625	1875336.625	9486.5	93128.65625	3353.083251953125	958.75	
731.3829956054688	1724681.875	8509.75	56543.25	3161.25	616.9166870117188	
732.6309814453125	1927762.	5681.	53637.83203125	4947.33349609375	792.	
733.8790283203125	1741022.5	8284.5	65194.75	2310.333251953125	658.5	
735.1270141601563	2279277.5	11215.	68131.5859375	4638.25	725.3333129882813	
736.375	2010791.5	7608.75	58709.41796875	2694.333251953125	817.0833129882813	
737.6229858398438	2434601.25	7258.	61798.08203125	2785.916748046875	850.4166870117188	
738.8709716796875	1645531.25	7408.5	83658.5234375	2944.416748046875	950.4166870117188	
740.1199951171875	1722628.625	7583.75	68122.75	3695.416748046875	792.	
741.3679809570313	1861098.75	9161.25	122943.0078125	3645.166748046875	808.8333129882813	
742.6160278320313	1691111.75	8485.	71119.0859375	3728.583251953125	1192.416625976563	
743.864013671875	1721399.75	8459.75	79716.5	5731.08349609375	1050.583374023438	
745.1119995117188	1655463.	6582.25	74459.3359375	7161.33349609375	892.	
746.3599853515625	2162114.25	5856.	70276.75	4246.	1000.666687011719	
747.6079711914063	1728389.5	6357.	83570.	3570.083251953125	1017.25	
748.8560180664063	1580966.875	7133.	59617.53125	5898.33349609375	766.8333129882813	
750.10400390625	1793064.	11665.5	66349.3359375	6600.25	658.5	
751.3519897460938	1972816.375	14700.25	61410.41796875	4471.41650390625	850.4166870117188	
752.5999755859375	1454339.	9637.25	68097.8359375	2802.583251953125	608.5	
753.8489990234375	1456984.	40536.75	69179.	2952.75	816.9166870117188	
755.0969848632813	1544333.125	11064.75	71750.3359375	2685.75	708.6666870117188	
756.344970703125	1366475.125	16252.75	98954.4140625	3486.75	1050.666625976563	
757.593017578125	1904022.5	5731.25	65482.58203125	7594.41650390625	641.8333129882813	
758.8410034179688	1511528.	6006.5	85045.2109375	2777.583251953125	675.25	
760.0889892578125	1439735.	5505.75	66206.1640625	2885.833251953125	716.8333129882813	
761.3369750976563	1356433.125	5606.25	69550.75	2894.25	1000.5	
762.5850219726563	1751277.875	7383.25	113594.4296875	5574.08349609375	641.9166870117188	
763.8330078125	1339016.	6206.75	76955.75	3119.583251953125	758.6666870117188	
765.0809936523438	1423464.	7333.	66662.8359375	3762.083251953125	608.5	
766.3289794921875	1502692.5	6356.75	79210.75	3628.583251953125	850.4166870117188	
767.5780029296875	1478151.875	28328.75	81556.0859375	4021.	766.8333129882813	
768.8259887695313	1474067.25	6957.75	71924.25	12623.6669921875	800.3333129882813	
770.073974609375	1457309.75	6532.25	81937.5	3127.916748046875	516.6666870117188	
771.322021484375	1683753.	8585.	61910.25	3469.916748046875	750.3333129882813	
772.5700073242188	1221665.5	8935.5	97814.6640625	4379.41650390625	733.5833129882813	
773.8179931640625	1588850.875	10612.75	84461.	4980.16650390625	725.25	
775.0659790039063	1571958.75	8034.	64630.08203125	7585.41650390625	641.8333129882813	
776.3140258789063	771623.5	12115.75	60032.33203125	6791.08349609375	633.5	
777.56201171875	1500964.75	24632.5	61979.08203125	5706.08349609375	616.75	
778.8099975585938	1398145.25	17726.25	120065.7890625	5647.75	967.0833129882813	
780.0579833984375	1534504.375	8410.	55467.16796875	4938.33349609375	658.4166870117188	
781.3070068359375	1813792.	7358.25	82415.96875	5405.91650390625	775.3333129882813	
782.5549926757813	1355379.	7758.5	66681.0859375	4746.83349609375	983.75	
783.802978515625	1551627.25	8134.5	110786.6796875	3970.666748046875	783.6666870117188	
785.051025390625	1560477.25	7057.75	80502.5859375	5163.83349609375	591.8333129882813	
786.2990112304688	5713917.	8084.25	61803.08203125	7418.33349609375	641.75	
787.5469970703125	1790078.625	6432.	84274.	4880.25	725.0833129882813	
788.7949829101563	1369160.	5755.75	86410.5859375	6040.41650390625	633.6666870117188	
790.0430297851563	1362449.125	7007.75	82119.75	6549.25	833.75	
791.291015625	1470776.	7058.	70918.4140625	7067.75	958.8333129882813	
792.5390014648438	1627795.25	9536.25	97562.5	13007.9169921875	975.4166870117188	
793.7869873046875	1663485.75	6181.75	87403.8359375	4863.41650390625	742.	
795.0360107421875	1302232.25	6707.5	71174.9140625	4404.66650390625	608.3333129882813	
796.2839965820313	1365898.25	9261.25	89451.6484375	4154.33349609375	641.8333129882813	
797.531982421875	1224952.	5706.25	69934.75	3311.416748046875	616.8333129882813	
798.780029296875	1448352.5	5981.5	57026.	8624.1669921875	550.1666870117188	
800.0280151367188	1237080.	4955.25	50800.75	2368.833251953125	500.	
801.2760009765625	1657773.875	4354.25	69044.6484375	2101.75	516.6666870117188	
802.5239868164063	1339805.	7884.5	54875.5	2819.083251953125	867.	
803.77197265625	1217184.	4629.5	57819.08203125	2985.916748046875	850.4166870117188	
805.02001953125	1414715.25	7733.75	50256.83203125	2593.916748046875	591.75	
806.2680053710938	3018859.5	6457.25	68711.8359375	4045.75	783.5833129882813	
807.5159912109375	1259952.	6106.75	59910.83203125	7076.41650390625	708.5833129882813	
808.7650146484375	1481702.625	5906.25	62413.5	6658.66650390625	691.9166870117188	
810.0130004882813	1474533.75	5130.25	59112.	3970.5	600.0833129882813	
811.260986328125	1355790.75	7959.75	65415.0625	4763.08349609375	750.3333129882813	
812.5089721679688	1320472.	8660.25	169299.734375	8159.66650390625	1017.25	
813.7570190429688	2256756.5	7609.	59936.	4629.75	708.5833129882813	
815.0050048828125	1577210.75	8334.75	57112.5	42943.88671875	758.5833129882813	
816.2529907226563	2411106.25	6256.75	57161.66796875	4129.08349609375	817.1666870117188	
817.5009765625	1441901.75	5706.	70874.8359375	4529.58349609375	708.5833129882813	
818.7490234375	1361645.	6131.5	53086.66796875	3736.916748046875	475.	
819.9970092773438	1449620.25	8911.	60396.66796875	4087.416748046875	708.5833129882813	
821.2449951171875	1271865.125	7133.25	47158.33203125	3153.083251953125	658.4166870117188	
822.4940185546875	1654847.25	11589.75	50342.41796875	3211.333251953125	675.3333129882813	
823.7420043945313	1346792.5	7558.5	44462.75	2468.75	558.5	
824.989990234375	1269248.	9786.75	54985.66796875	3036.166748046875	591.75	
826.2379760742188	1475217.25	15501.25	45711.16796875	3470.	558.4166870117188	
827.4860229492188	1375352.	93022.0625	50949.08203125	2869.333251953125	525.	
828.7340087890625	1411934.375	9235.75	48400.58203125	3661.916748046875	650.0833129882813	
829.9819946289063	1651125.5	172993.828125	74017.25	3011.083251953125	808.75	
831.22998046875	1419768.75	9536.25	72911.9140625	4379.41650390625	616.8333129882813	
832.47802734375	1310104.	9060.75	46846.	2961.	700.1666870117188	
833.7260131835938	1335816.5	32926.75	49401.66796875	3637.	616.75	
834.9739990234375	2374303.5	10613.25	64087.58203125	4855.83349609375	858.75	
836.2230224609375	1994074.75	11138.75	63329.41796875	4638.16650390625	741.8333129882813	
837.4710083007813	1421241.375	17575.	54973.16796875	6709.58349609375	500.	
838.718994140625	1441060.875	17149.25	61374.75	3703.583251953125	725.25	
839.9669799804688	1503730.875	25642.5	70627.9140625	4671.58349609375	500.0833435058594	
841.2150268554688	1477848.	22785.5	57246.83203125	3828.666748046875	583.4166870117188	
842.4630126953125	1429571.875	25066.	56804.16796875	2910.916748046875	633.5	
843.7109985351563	1436655.25	16823.25	49029.91796875	3261.333251953125	692.	
844.958984375	1273376.	17249.25	48652.25	2744.25	550.1666870117188	
846.2069702148438	3042651.	15296.	57415.33203125	3261.333251953125	550.0833129882813	
847.4550170898438	1367905.75	15646.25	56947.91796875	3636.833251953125	550.1666870117188	
848.7030029296875	1659262.25	18076.5	77998.5	2785.833251953125	666.75	
849.9520263671875	1493475.5	15020.25	73597.9140625	2168.5	883.75	
851.2000122070313	1489223.25	15446.25	63581.58203125	3303.083251953125	675.1666870117188	
852.447998046875	2270107.5	12816.75	62774.08203125	2877.666748046875	616.75	
853.6959838867188	1576588.625	14119.25	93546.7109375	2969.333251953125	792.1666870117188	
854.9439697265625	1494009.625	11815.	63969.83203125	2535.583251953125	666.8333129882813	
856.1920166015625	1314204.	10913.5	62169.75	3261.416748046875	808.6666870117188	
857.4400024414063	1357609.625	11439.25	67370.9140625	4204.41650390625	742.	
858.68798828125	1270640.	8610.	55137.41796875	3336.5	650.0833129882813	
859.9359741210938	1241165.25	9486.75	64449.75	3920.666748046875	842.0833129882813	
861.1840209960938	1858859.125	10713.	56359.41796875	2744.	1142.416625976563	
862.4320068359375	1385139.5	10613.	87722.65625	2877.5	766.9166870117188	
863.6810302734375	1500576.	21265.25	110730.03125	3586.666748046875	900.4166870117188	
864.9290161132813	1854867.625	9236.	63562.5	3361.5	583.5	
866.177001953125	1525023.25	8660.	73060.8359375	2944.333251953125	641.75	
867.4249877929688	1563014.25	60280.25	73035.5859375	2977.583251953125	741.9166870117188	
868.6729736328125	1665378.25	12040.25	68600.4140625	3895.666748046875	758.5	
869.9210205078125	3114397.75	12190.75	88795.9140625	2285.416748046875	617.	
871.1690063476563	1783051.375	11063.75	70836.1640625	2886.	691.9166870117188	
872.4169921875	1489914.75	10588.	77088.3359375	1943.083374023438	1334.25	
873.6649780273438	1736164.75	11289.	89230.5	2201.833251953125	725.1666870117188	
874.9130249023438	1499577.	9837.	62133.	2360.25	808.75	
876.1610107421875	1535167.5	13719.5	83013.5859375	2485.416748046875	666.75	
877.4099731445313	1529611.25	9937.	73996.5859375	2485.416748046875	783.6666870117188	
878.6580200195313	2822993.25	9010.5	56311.91796875	2719.083251953125	625.0833129882813	
879.906005859375	1691315.5	22021.75	64765.	3895.666748046875	558.4166870117188	
881.1539916992188	1766819.5	7158.	49428.75	2935.916748046875	516.6666870117188	
882.4019775390625	1649379.125	13318.	55664.25	3453.25	667.	
883.6500244140625	1316333.375	28084.5	55813.16796875	3261.5	683.4166870117188	
884.8980102539063	1397000.	6231.75	58413.25	3119.583251953125	583.5	
886.14599609375	1330243.75	5931.5	48110.91796875	2644.	700.1666870117188	
887.3939819335938	1413362.25	5706.25	74042.1640625	3002.666748046875	591.75	
888.6420288085938	1522454.5	5756.25	47000.58203125	3820.833251953125	733.5833129882813	
889.8900146484375	1285240.	7333.25	39087.58203125	2168.333251953125	633.4166870117188	
891.1389770507813	1385410.75	6031.5	62755.58203125	3102.75	483.4166564941406	
892.3870239257813	1544829.	7157.75	51410.16796875	2185.083251953125	550.0833129882813	
893.635009765625	2711950.25	6006.25	53046.	2935.916748046875	641.8333129882813	
894.8829956054688	1424932.	13871.	58826.75	4087.916748046875	600.1666870117188	
896.1309814453125	1468792.	10438.75	46945.5	2810.75	733.6666870117188	
897.3790283203125	1765451.	6056.75	55966.08203125	3178.083251953125	500.0833435058594	
898.6270141601563	2304310.	8034.25	42531.75	2869.166748046875	516.75	
899.875	1991300.75	6607.	48711.83203125	4196.5	675.25	
901.1229858398438	1415267.	5731.	44833.83203125	2911.	541.75	
902.3709716796875	1273206.75	5856.5	45680.41796875	2827.5	741.9166870117188	
903.6190185546875	1408776.	6907.5	50814.5	2485.583251953125	541.8333129882813	
904.8679809570313	1295531.	5631.	51106.25	2176.833251953125	491.6666564941406	
906.1160278320313	1415333.5	5831.	49792.08203125	2160.083251953125	48929.125	
907.364013671875	1372670.25	5205.25	34139.66796875	1968.25	658.4166870117188	
908.6119995117188	1450939.125	26904.5	36449.83203125	2227.	475.	
909.8599853515625	1222079.375	4204.25	33620.5	2068.25	11546.75	
911.1079711914063	1466282.125	4304.	32351.666015625	1943.25	525.	
912.3560180664063	1260428.125	6707.75	34792.83203125	1960.	600.1666870117188	
913.60400390625	1213987.	5380.75	31074.333984375	1934.75	700.3333129882813	
914.8519897460938	1184302.625	5756.25	30053.166015625	1409.333374023438	566.8333129882813	
916.0999755859375	1159872.	10740.75	34394.83203125	1417.583374023438	550.1666870117188	
917.3480224609375	1212243.	4504.5	31222.666015625	1309.166625976563	525.	
918.5969848632813	1191105.625	3929.	29518.666015625	1601.	575.1666870117188	
919.844970703125	1098628.	4104.	29986.916015625	4473.16650390625	600.0833129882813	
921.093017578125	1251907.	4629.75	30747.25	1851.416625976563	558.4166870117188	
922.3410034179688	2295709.5	6882.75	32142.333984375	1893.166625976563	558.5	
923.5889892578125	1228964.625	4504.5	35053.41796875	1851.416625976563	1234.25	
924.8369750976563	1214420.	5205.5	40464.83203125	1559.416625976563	516.75	
926.0850219726563	1413480.	4454.5	33367.58203125	2185.416748046875	483.3333435058594	
927.3330078125	1419269.125	7809.25	34526.5	2418.833251953125	633.4166870117188	
928.5809936523438	1357875.25	5431.	41838.66796875	2568.833251953125	683.5833129882813	
929.8289794921875	1295776.	4054.	32402.416015625	5156.	558.3333129882813	
931.0770263671875	2563008.	5180.5	36214.33203125	1901.416625976563	550.	
932.3259887695313	1516766.375	4880.	27280.333984375	2994.583251953125	466.6666564941406	
933.573974609375	1336369.5	5080.25	25683.666015625	2043.25	700.25	
934.822021484375	1222800.	34480.	28248.916015625	1959.833374023438	441.6666564941406	
936.0700073242188	1426850.625	3904.	26904.833984375	1743.	625.0833129882813	
937.3179931640625	1148396.	8912.5	25057.416015625	2185.083251953125	558.3333129882813	
938.5659790039063	1144259.	4779.75	24732.583984375	1884.75	533.3333129882813	
939.8140258789063	1175264.	4579.75	22735.583984375	1617.666625976563	416.75	
941.06201171875	1129432.5	4529.75	24280.75	1676.166625976563	675.1666870117188	
942.3099975585938	1185828.	4229.25	26369.666015625	1709.666625976563	383.3333435058594	
943.5579833984375	1121885.625	3728.5	29112.083984375	1634.583374023438	441.6666564941406	
944.8060302734375	1169308.375	3678.75	24055.083984375	1409.25	566.8333129882813	
946.0549926757813	1298689.5	3253.25	27808.833984375	1934.833374023438	458.3333435058594	
947.302978515625	1154300.375	3503.5	23955.25	1425.833374023438	516.6666870117188	
948.551025390625	1232118.25	4254.5	23061.583984375	1709.583374023438	491.75	
949.7990112304688	1182656.	4454.5	25107.833984375	1609.5	458.3333435058594	
951.0469970703125	1160759.375	7308.5	23779.333984375	1584.416625976563	883.8333129882813	
952.2949829101563	1138632.	3453.25	22794.416015625	1484.416625976563	516.75	
953.5430297851563	1107480.	5305.75	23086.583984375	1342.5	450.	
954.791015625	1138656.75	4504.75	24650.333984375	1501.	558.4166870117188	
956.0390014648438	1039000.	3954.	19579.25	1367.583374023438	666.8333129882813	
957.2869873046875	1042269.375	3678.5	21935.416015625	1267.333374023438	400.	
958.5349731445313	993156.	3503.25	21500.	2135.	416.75	
959.7839965820313	1026244.	3453.25	20355.916015625	1526.083374023438	641.6666870117188	
961.031982421875	1120127.5	2802.25	26936.25	1718.	566.75	
962.280029296875	932808.	3128.	18335.75	1459.25	416.6666564941406	
963.5280151367188	908232.	3653.5	16180.75	1484.416625976563	508.4166564941406	
964.7760009765625	837368.	4254.25	15295.8330078125	1509.416625976563	358.3333435058594	
966.0239868164063	906488.	2802.25	15496.5830078125	1567.833374023438	350.	
967.27197265625	845907.5	2602.5	15070.4169921875	1809.666625976563	491.6666564941406	
968.52001953125	866264.	2802.25	15813.5	2611.	466.75	
969.7680053710938	869208.	2151.75	15563.25	1367.666625976563	541.75	
971.0159912109375	813556.	2276.75	14327.5	1726.5	558.4166870117188	
972.2639770507813	829684.	2402.	14319.1669921875	1442.666625976563	425.	
973.5130004882813	805920.	1976.25	13442.5	1317.583374023438	650.25	
974.760986328125	872576.	3228.	14569.5830078125	1342.583374023438	500.	
976.0089721679688	827088.	1250.75	13267.25	1392.75	466.6666564941406	
977.2570190429688	801340.	2051.5	12532.75	1200.75	450.	
978.5050048828125	792176.	1976.75	13092.	1384.333374023438	400.	
979.7529907226563	788444.	1876.25	13283.8330078125	1259.166625976563	508.3333435058594	
981.0009765625	796100.	2502.25	12883.5	1317.583374023438	383.4166564941406	
982.2490234375	784712.	1876.75	13100.25	1451.	475.0833435058594	
983.4970092773438	784624.	1851.5	13083.6669921875	1375.916625976563	525.	
984.7449951171875	801296.	2001.5	12850.0830078125	1317.583374023438	391.6666564941406	
985.9929809570313	780200.	1626.25	13125.5	1225.666625976563	250.	
987.2420043945313	791548.	1751.25	13384.3330078125	1342.5	391.6666564941406	
988.489990234375	791496.	2426.75	13400.9169921875	1184.	458.3333435058594	
989.7379760742188	788036.	1751.5	13309.0830078125	975.5	408.3333435058594	
990.9860229492188	773180.	2001.5	12941.75	1050.583374023438	525.1666870117188	
992.2340087890625	779920.	1801.5	12833.25	958.8333129882813	483.3333435058594	
993.4819946289063	771380.	1676.	12749.9169921875	1309.166625976563	433.3333435058594	
994.72998046875	769704.	1776.	12407.75	1192.416625976563	475.	
995.97802734375	751960.	2552.25	13200.5	1133.916625976563	475.	
997.2260131835938	755368.	1826.5	12441.	1050.75	475.	
998.4739990234375	769924.	2026.75	12357.5830078125	1409.166625976563	483.3333435058594	
